* Sea-Bird SBE19plus Data File:
* FileName = C:\WQ\field\CTD_files\Aqr-6199\WQP111.hex
* Software Version 1.59
* Temperature SN =  7360
* Conductivity SN =  7360
* System UpLoad Time = Jul 15 2015 21:54:45
* ds
* SBE 19plus V 2.5.2  SERIAL NO. 7360    15 Jul 2015 11:54:14
* vbatt = 13.3, vlith =  8.1, ioper =  61.0 ma, ipump =  70.1 ma,
* iext01 =   5.2 ma, iext2345 =  57.8 ma
* status = not logging
* number of scans to average = 1
* samples = 3200, free = 3130044, casts = 2
* mode = profile, minimum cond freq = 3045, pump delay = 40 sec
* autorun = no, ignore magnetic switch = no
* battery type = alkaline, battery cutoff =  7.5 volts
* pressure sensor = strain gauge, range = 870.0
* SBE 38 = no, WETLABS = no, OPTODE = no, SBE63 = no, Gas Tension Device = no
* Ext Volt 0 = yes, Ext Volt 1 = yes
* Ext Volt 2 = yes, Ext Volt 3 = yes
* Ext Volt 4 = yes, Ext Volt 5 = no
* echo characters = yes
* output format = raw HEX


* S>
*
* SBE 19plus V 2.5.2  SERIAL NO. 7360    15 Jul 2015 11:54:25
* temperature:  08-Aug-13
*     TA0 = 1.266975e-03
*     TA1 = 2.713870e-04
*     TA2 = -8.894648e-07
*     TA3 = 1.712994e-07
*     TOFFSET = 0.000000e+00
* conductivity:  08-Aug-13
*     G = -9.789944e-01
*     H = 1.518054e-01
*     I = -3.760482e-04
*     J = 5.209690e-05
*     CPCOR = -9.570000e-08
*     CTCOR = 3.250000e-06
*     CSLOPE = 1.000000e+00
* pressure S/N = 3885706, range = 870 psia:  29-Jul-13
*     PA0 = 8.691792e-01
*     PA1 = 2.649506e-03
*     PA2 = 1.659475e-11
*     PTCA0 = 5.252977e+05
*     PTCA1 = 2.484964e+01
*     PTCA2 = -4.421651e-01
*     PTCB0 = 2.504400e+01
*     PTCB1 = 6.000001e-04
*     PTCB2 = 0.000000e+00
*     PTEMPA0 = -6.389295e+01
*     PTEMPA1 = 5.320092e+01
*     PTEMPA2 = -3.290197e-01
*     POFFSET = 0.000000e+00
* volt 0: offset = -4.657263e-02, slope = 1.250137e+00
* volt 1: offset = -4.690842e-02, slope = 1.251306e+00
* volt 2: offset = -4.660632e-02, slope = 1.250843e+00
* volt 3: offset = -4.663158e-02, slope = 1.250540e+00
* volt 4: offset = -4.637579e-02, slope = 1.250323e+00
* volt 5: offset = -4.628947e-02, slope = 1.251588e+00
*     EXTFREQSF = 9.999977e-01

* dh
* cast   1 15 Jul 2015 03:43:07 samples 1 to 1741, avg = 1, stop = mag switch


* S>
# nquan = 10
# nvalues = 1452                        
# units = specified
# name 0 = prdM: Pressure, Strain Gauge [db]
# name 1 = tv290C: Temperature [ITS-90, deg C]
# name 2 = c0S/m: Conductivity [S/m]
# name 3 = sbeox0V: Oxygen raw, SBE 43 [V]
# name 4 = flECO-AFL: Fluorescence, WET Labs ECO-AFL/FL [mg/m^3]
# name 5 = CStarTr0: Beam Transmission, WET Labs C-Star [%]
# name 6 = scan: Scan Count
# name 7 = timeS: Time, Elapsed [seconds]
# name 8 = par/sat/log: PAR/Logarithmic, Satlantic [umol photons/m^2/sec]
# name 9 = flag:  0.000e+00
# span 0 =      0.060,     16.051       
# span 1 =    21.4872,    22.3093       
# span 2 =   0.100941,   5.141568       
# span 3 =     2.0160,     2.8450       
# span 4 =    -0.1754,    29.3114       
# span 5 =     7.7269,    84.1358       
# span 6 =          1,       1452       
# span 7 =      0.000,    362.750       
# span 8 = 9.4018e+01, 3.3028e+03       
# span 9 = 0.0000e+00, 0.0000e+00       
# interval = seconds: 0.25
# start_time = Jul 15 2015 03:43:07 [Instrument's time stamp, header]
# bad_flag = -9.990e-29
# <Sensors count="8" >
#   <sensor Channel="1" >
#     <!-- Count, Temperature -->
#     <TemperatureSensor SensorID="58" >
#       <SerialNumber>7360</SerialNumber>
#       <CalibrationDate>08-Aug-13</CalibrationDate>
#       <A0>1.26697500e-003</A0>
#       <A1>2.71387000e-004</A1>
#       <A2>-8.89464800e-007</A2>
#       <A3>1.71299400e-007</A3>
#       <Slope>1.00000000</Slope>
#       <Offset>0.0000</Offset>
#     </TemperatureSensor>
#   </sensor>
#   <sensor Channel="2" >
#     <!-- Frequency 0, Conductivity -->
#     <ConductivitySensor SensorID="3" >
#       <SerialNumber>7360</SerialNumber>
#       <CalibrationDate>08-Aug-13</CalibrationDate>
#       <UseG_J>1</UseG_J>
#       <!-- Cell const and series R are applicable only for wide range sensors. -->
#       <SeriesR>0.0000</SeriesR>
#       <CellConst>2000.0000</CellConst>
#       <ConductivityType>0</ConductivityType>
#       <Coefficients equation="0" >
#         <A>0.00000000e+000</A>
#         <B>0.00000000e+000</B>
#         <C>0.00000000e+000</C>
#         <D>0.00000000e+000</D>
#         <M>0.0</M>
#         <CPcor>-9.57000000e-008</CPcor>
#       </Coefficients>
#       <Coefficients equation="1" >
#         <G>-9.78994400e-001</G>
#         <H>1.51805400e-001</H>
#         <I>-3.76048200e-004</I>
#         <J>5.20969000e-005</J>
#         <CPcor>-9.57000000e-008</CPcor>
#         <CTcor>3.2500e-006</CTcor>
#         <!-- WBOTC not applicable unless ConductivityType = 1. -->
#         <WBOTC>0.00000000e+000</WBOTC>
#       </Coefficients>
#       <Slope>1.00000000</Slope>
#       <Offset>0.00000</Offset>
#     </ConductivitySensor>
#   </sensor>
#   <sensor Channel="3" >
#     <!-- Count, Pressure, Strain Gauge -->
#     <PressureSensor SensorID="46" >
#       <SerialNumber>7360</SerialNumber>
#       <CalibrationDate>29-Jul-13</CalibrationDate>
#       <PA0>8.69179217e-001</PA0>
#       <PA1>2.64950632e-003</PA1>
#       <PA2>1.65947483e-011</PA2>
#       <PTEMPA0>-6.38929483e+001</PTEMPA0>
#       <PTEMPA1>5.32009236e+001</PTEMPA1>
#       <PTEMPA2>-3.29019670e-001</PTEMPA2>
#       <PTCA0>5.25297715e+005</PTCA0>
#       <PTCA1>2.48496381e+001</PTCA1>
#       <PTCA2>-4.42165143e-001</PTCA2>
#       <PTCB0>2.50440000e+001</PTCB0>
#       <PTCB1>6.00000000e-004</PTCB1>
#       <PTCB2>0.00000000e+000</PTCB2>
#       <Offset>0.000000</Offset>
#     </PressureSensor>
#   </sensor>
#   <sensor Channel="4" >
#     <!-- A/D voltage 0, Oxygen, SBE 43 -->
#     <OxygenSensor SensorID="38" >
#       <SerialNumber>2633</SerialNumber>
#       <CalibrationDate>09-Aug-13</CalibrationDate>
#       <Use2007Equation>1</Use2007Equation>
#       <CalibrationCoefficients equation="0" >
#         <!-- Coefficients for Owens-Millard equation. -->
#         <Boc>0.0000</Boc>
#         <Soc>0.0000e+000</Soc>
#         <offset>0.0000</offset>
#         <Pcor>0.00e+000</Pcor>
#         <Tcor>0.0000</Tcor>
#         <Tau>0.0</Tau>
#       </CalibrationCoefficients>
#       <CalibrationCoefficients equation="1" >
#         <!-- Coefficients for Sea-Bird equation - SBE calibration in 2007 and later. -->
#         <Soc>4.2180e-001</Soc>
#         <offset>-0.5022</offset>
#         <A>-2.8656e-003</A>
#         <B> 2.0966e-004</B>
#         <C>-3.5306e-006</C>
#         <D0> 2.5826e+000</D0>
#         <D1> 1.92634e-004</D1>
#         <D2>-4.64803e-002</D2>
#         <E> 3.6000e-002</E>
#         <Tau20> 1.8100</Tau20>
#         <H1>-3.3000e-002</H1>
#         <H2> 5.0000e+003</H2>
#         <H3> 1.4500e+003</H3>
#       </CalibrationCoefficients>
#     </OxygenSensor>
#   </sensor>
#   <sensor Channel="5" >
#     <!-- A/D voltage 1, Free -->
#   </sensor>
#   <sensor Channel="6" >
#     <!-- A/D voltage 2, Fluorometer, WET Labs ECO-AFL/FL -->
#     <FluoroWetlabECO_AFL_FL_Sensor SensorID="20" >
#       <SerialNumber>FLRT-3240</SerialNumber>
#       <CalibrationDate>23-Sep-14</CalibrationDate>
#       <ScaleFactor>6.00000000e+000</ScaleFactor>
#       <!-- Dark output -->
#       <Vblank>0.0390</Vblank>
#     </FluoroWetlabECO_AFL_FL_Sensor>
#   </sensor>
#   <sensor Channel="7" >
#     <!-- A/D voltage 3, Transmissometer, WET Labs C-Star -->
#     <WET_LabsCStar SensorID="71" >
#       <SerialNumber>CST-1626PR</SerialNumber>
#       <CalibrationDate>08-May-13</CalibrationDate>
#       <M>21.3930</M>
#       <B>-0.1500</B>
#       <PathLength>0.250</PathLength>
#     </WET_LabsCStar>
#   </sensor>
#   <sensor Channel="8" >
#     <!-- A/D voltage 4, PAR/Logarithmic, Satlantic -->
#     <PARLog_SatlanticSensor SensorID="76" >
#       <SerialNumber>PAR-0411</SerialNumber>
#       <CalibrationDate>01-Aug-13</CalibrationDate>
#       <a0>1.3170e+000</a0>
#       <a1>9.0330e-001</a1>
#       <Im>1.3589e+000</Im>
#       <ConversionUnits>1</ConversionUnits>
#       <Multiplier>1.0000e+000</Multiplier>
#     </PARLog_SatlanticSensor>
#   </sensor>
# </Sensors>
# datcnv_date = Dec 09 2024 10:07:19, 7.26.7.129 [datcnv_vars = 9]
# datcnv_in = C:\Users\awhite\data\CTD\processing\19plusV2_7360_20141014_test\9142453d5e9039c0e5bc1d6ef3cc544439382d0c.hex C:\Users\awhite\data\CTD\processing\19plusV2_7360_20141014_test\19plusV2_7360_20141014.xmlcon
# datcnv_skipover = 0
# datcnv_ox_hysteresis_correction = yes
# filter_date = Dec 09 2024 10:07:19, 7.26.7.129
# filter_in = C:\Users\awhite\data\CTD\processing\19plusV2_7360_20141014_test\5a1e612b72f2eb49544c8ece70b747e068f8c05e.cnv
# filter_low_pass_tc_A = 0.500
# filter_low_pass_tc_B = 1.000
# filter_low_pass_A_vars = tv290C c0S/m
# filter_low_pass_B_vars = prdM
# file_type = ascii
*END*
      0.060    21.4872   0.100941     2.7712    -0.0770    78.0527          1      0.000 1.8860e+03 0.0000e+00
      0.071    21.4914   0.167929     2.7725    -0.0770    78.0658          2      0.250 1.8551e+03 0.0000e+00
      0.085    21.4983   0.279578     2.7719    -0.0761    78.0445          3      0.500 5.6499e+02 0.0000e+00
      0.103    21.5098   0.465659     2.7716    -0.0394    78.0413          4      0.750 1.9846e+03 0.0000e+00
      0.126    21.5290   0.775795     2.7715    -0.0394    78.0527          5      1.000 2.0200e+03 0.0000e+00
      0.156    21.5610   1.292688     2.7710    -0.0399    78.0282          6      1.250 2.0366e+03 0.0000e+00
      0.193    21.6143   2.043580     2.7710    -0.0399    78.0527          7      1.500 2.0083e+03 0.0000e+00
      0.235    21.6945   2.896926     2.7705    -0.0422    78.0413          8      1.750 1.9943e+03 0.0000e+00
      0.281    21.7936   3.651050     2.7715    29.3023    78.0380          9      2.000 1.9339e+03 0.0000e+00
      0.329    21.8963   4.190529     2.7702    29.3069    71.9630         10      2.250 1.9130e+03 0.0000e+00
      0.376    21.9916   4.533527     2.7709    29.3055    71.9565         11      2.500 1.1921e+03 0.0000e+00
      0.422    22.0730   4.746464     2.7717    29.3096    71.9630         12      2.750 9.2990e+02 0.0000e+00
      0.467    22.1373   4.875856     2.7730     0.1221     7.7318         13      3.000 3.0441e+02 0.0000e+00
      0.510    22.1847   4.952323     2.7752     0.1194     7.7416         14      3.250 2.1006e+03 0.0000e+00
      0.549    22.2176   4.995808     2.7799     0.1167     7.7416         15      3.500 8.2716e+02 0.0000e+00
      0.583    22.2391   5.020918     2.7863     0.1185     7.7269         16      3.750 1.7996e+03 0.0000e+00
      0.612    22.2521   5.036453     2.7933     0.2920    66.5834         17      4.000 1.0546e+03 0.0000e+00
      0.635    22.2595   5.046196     2.8046     0.2915    66.6046         18      4.250 1.2792e+03 0.0000e+00
      0.654    22.2635   5.052426     2.8139     0.2901    66.5915         19      4.500 1.3051e+03 0.0000e+00
      0.669    22.2655   5.057268     2.8223     0.2915    79.2262         20      4.750 1.2129e+03 0.0000e+00
      0.681    22.2666   5.062377     2.8288     0.2934    79.2377         21      5.000 1.5254e+03 0.0000e+00
      0.691    22.2674   5.068894     2.8363     0.1038    79.2360         22      5.250 8.9739e+02 0.0000e+00
      0.700    22.2684   5.076930     2.8450     0.1029    67.0208         23      5.500 1.6064e+03 0.0000e+00
      0.707    22.2690   5.084945     2.8428     0.1066    67.0224         24      5.750 1.5915e+03 0.0000e+00
      0.714    22.2692   5.091230     2.8245     0.1048    67.0175         25      6.000 1.1914e+03 0.0000e+00
      0.718    22.2693   5.095593     2.7908     0.0942    67.0143         26      6.250 8.7805e+02 0.0000e+00
      0.721    22.2698   5.098681     2.7509     0.0983    80.2333         27      6.500 1.7916e+03 0.0000e+00
      0.723    22.2707   5.100767     2.7082     0.0988    80.2317         28      6.750 1.3393e+03 0.0000e+00
      0.724    22.2717   5.101819     2.6642     0.0988    80.2219         29      7.000 1.0472e+03 0.0000e+00
      0.725    22.2727   5.101795     2.6283    -0.0170    80.3165         30      7.250 1.8361e+03 0.0000e+00
      0.726    22.2734   5.100981     2.5969    -0.0188    80.3133         31      7.500 1.5752e+03 0.0000e+00
      0.727    22.2738   5.100174     2.5742    -0.0184    80.3100         32      7.750 1.1173e+03 0.0000e+00
      0.727    22.2744   5.099951     2.5579    -0.0198    80.2986         33      8.000 1.1067e+03 0.0000e+00
      0.728    22.2755   5.100196     2.5418    -0.0188    80.6005         34      8.250 1.1993e+03 0.0000e+00
      0.730    22.2768   5.100254     2.5250    -0.0106    80.6038         35      8.500 1.1026e+03 0.0000e+00
      0.731    22.2778   5.099733     2.5090    -0.0115    80.6038         36      8.750 1.1874e+03 0.0000e+00
      0.731    22.2782   5.099615     2.4931    -0.0097    80.6234         37      9.000 8.1502e+02 0.0000e+00
      0.731    22.2785   5.101160     2.4739    -0.0111    80.6120         38      9.250 1.5548e+03 0.0000e+00
      0.731    22.2792   5.103958     2.4512     0.0965    80.6234         39      9.500 1.3587e+03 0.0000e+00
      0.732    22.2803   5.106757     2.4273     0.0942    80.6087         40      9.750 1.3034e+03 0.0000e+00
      0.733    22.2814   5.108884     2.4092     0.0970    80.6152         41     10.000 7.9715e+02 0.0000e+00
      0.735    22.2820   5.110161     2.3933     0.0965    80.6185         42     10.250 1.1472e+03 0.0000e+00
      0.736    22.2822   5.110624     2.3765     0.0938    80.6071         43     10.500 1.1700e+03 0.0000e+00
      0.736    22.2823   5.110401     2.3624     0.1533    80.3998         44     10.750 1.3558e+03 0.0000e+00
      0.736    22.2826   5.109949     2.3481     0.1551    80.4079         45     11.000 1.2084e+03 0.0000e+00
      0.735    22.2834   5.109908     2.3310     0.1556    80.4030         46     11.250 1.0385e+03 0.0000e+00
      0.733    22.2844   5.110301     2.3177     0.1533    80.9923         47     11.500 1.1461e+03 0.0000e+00
      0.733    22.2855   5.110735     2.3090     0.1455    81.0037         48     11.750 1.2021e+03 0.0000e+00
      0.733    22.2863   5.111006     2.3071     0.1473    80.9890         49     12.000 6.8017e+02 0.0000e+00
      0.735    22.2867   5.110809     2.3024     0.1473    80.6544         50     12.250 1.5575e+03 0.0000e+00
      0.737    22.2863   5.109599     2.3003     0.1487    80.6560         51     12.500 1.8493e+03 0.0000e+00
      0.739    22.2849   5.107553     2.2991     0.1844    80.6577         52     12.750 1.3611e+03 0.0000e+00
      0.740    22.2829   5.105885     2.3040     0.1844    80.6609         53     13.000 1.2202e+03 0.0000e+00
      0.739    22.2803   5.105301     2.3116     0.1849    80.9433         54     13.250 9.2900e+02 0.0000e+00
      0.738    22.2775   5.105539     2.3185     0.1844    80.9498         55     13.500 1.8678e+03 0.0000e+00
      0.738    22.2751   5.106348     2.3255     0.1807    80.9417         56     13.750 6.7359e+02 0.0000e+00
      0.740    22.2737   5.107636     2.3341     0.1501    80.8992         57     14.000 1.0024e+03 0.0000e+00
      0.744    22.2735   5.108876     2.3433     0.1478    80.9009         58     14.250 8.1534e+02 0.0000e+00
      0.747    22.2737   5.109358     2.3486     0.1492    80.9074         59     14.500 1.4724e+03 0.0000e+00
      0.749    22.2733   5.109234     2.3491     0.1492    80.9384         60     14.750 1.5163e+03 0.0000e+00
      0.749    22.2717   5.109117     2.3430     0.1308    80.9417         61     15.000 1.6744e+03 0.0000e+00
      0.748    22.2689   5.109154     2.3333     0.1331    80.9498         62     15.250 1.6721e+03 0.0000e+00
      0.748    22.2660   5.109445     2.3277     0.1331    80.9629         63     15.500 2.0641e+03 0.0000e+00
      0.749    22.2643   5.109917     2.3289     0.1322    80.7784         64     15.750 1.8805e+03 0.0000e+00
      0.750    22.2641   5.110130     2.3389     0.1546    80.7817         65     16.000 1.6310e+03 0.0000e+00
      0.750    22.2643   5.110139     2.3544     0.1514    80.7801         66     16.250 1.0195e+03 0.0000e+00
      0.748    22.2637   5.110310     2.3646     0.1551    80.9368         67     16.500 6.5716e+02 0.0000e+00
      0.746    22.2615   5.110707     2.3674     0.1524    80.9384         68     16.750 9.1858e+02 0.0000e+00
      0.744    22.2586   5.111212     2.3677     0.1519    80.9351         69     17.000 2.5815e+03 0.0000e+00
      0.743    22.2567   5.111690     2.3711     0.1817    80.9155         70     17.250 1.8439e+03 0.0000e+00
      0.743    22.2568   5.112031     2.3762     0.1817    80.8568         71     17.500 1.1236e+03 0.0000e+00
      0.743    22.2582   5.112064     2.3796     0.1835    80.8568         72     17.750 7.3979e+02 0.0000e+00
      0.743    22.2598   5.111844     2.3778     0.1835    80.8617         73     18.000 9.1057e+02 0.0000e+00
      0.741    22.2609   5.111766     2.3714     0.1844    80.8241         74     18.250 2.0024e+03 0.0000e+00
      0.741    22.2611   5.112098     2.3609     0.1835    80.8339         75     18.500 8.4867e+02 0.0000e+00
      0.741    22.2605   5.112861     2.3495     0.1817    80.8176         76     18.750 1.6562e+03 0.0000e+00
      0.743    22.2599   5.113834     2.3398     0.1807    80.9547         77     19.000 1.2122e+03 0.0000e+00
      0.745    22.2599   5.114450     2.3293     0.1739    80.9531         78     19.250 8.8388e+02 0.0000e+00
      0.746    22.2604   5.114360     2.3225     0.1711    80.9498         79     19.500 1.6127e+03 0.0000e+00
      0.746    22.2603   5.113929     2.3155     0.1757    80.9612         80     19.750 1.1709e+03 0.0000e+00
      0.744    22.2585   5.113668     2.3060     0.1734    81.0543         81     20.000 1.1386e+03 0.0000e+00
      0.742    22.2547   5.113741     2.2953     0.1766    81.0755         82     20.250 1.2449e+03 0.0000e+00
      0.742    22.2495   5.114100     2.2897     0.1167    81.0608         83     20.500 1.3572e+03 0.0000e+00
      0.743    22.2447   5.114539     2.2918     0.1171    81.0151         84     20.750 6.5639e+02 0.0000e+00
      0.746    22.2420   5.114799     2.2941     0.1162    81.0102         85     21.000 1.3171e+03 0.0000e+00
      0.748    22.2416   5.114743     2.2943     0.1176    80.9955         86     21.250 1.5566e+03 0.0000e+00
      0.748    22.2426   5.114484     2.2943     0.1844    80.9841         87     21.500 8.1772e+02 0.0000e+00
      0.747    22.2434   5.114286     2.2962     0.1817    80.9694         88     21.750 1.4104e+03 0.0000e+00
      0.744    22.2429   5.114289     2.3053     0.1826    80.9808         89     22.000 1.1707e+03 0.0000e+00
      0.743    22.2412   5.114506     2.3159     0.1839    80.9776         90     22.250 3.2166e+03 0.0000e+00
      0.743    22.2393   5.114858     2.3239     0.1785    81.1245         91     22.500 7.4051e+02 0.0000e+00
      0.745    22.2385   5.115164     2.3297     0.1533    81.1130         92     22.750 8.9390e+02 0.0000e+00
      0.745    22.2392   5.115223     2.3346     0.1533    81.1245         93     23.000 1.1646e+03 0.0000e+00
      0.745    22.2406   5.115060     2.3334     0.1560    81.0559         94     23.250 1.6033e+03 0.0000e+00
      0.743    22.2418   5.114939     2.3292     0.1533    81.0657         95     23.500 1.4610e+03 0.0000e+00
      0.740    22.2419   5.115029     2.3188     0.1551    81.0706         96     23.750 1.3830e+03 0.0000e+00
      0.739    22.2404   5.115377     2.3062     0.1565    81.0412         97     24.000 1.2319e+03 0.0000e+00
      0.741    22.2385   5.115927     2.2924     0.1542    80.7458         98     24.250 1.7036e+03 0.0000e+00
      0.743    22.2374   5.116396     2.2807     0.1514    80.7409         99     24.500 1.1212e+03 0.0000e+00
      0.744    22.2378   5.116436     2.2784     0.1679    80.7670        100     24.750 1.2324e+03 0.0000e+00
      0.744    22.2388   5.116063     2.2786     0.1707    80.6724        101     25.000 5.3349e+02 0.0000e+00
      0.742    22.2392   5.115671     2.2787     0.1688    80.6642        102     25.250 6.2476e+02 0.0000e+00
      0.739    22.2379   5.115568     2.2766     0.1711    80.6675        103     25.500 8.3378e+02 0.0000e+00
      0.737    22.2353   5.115834     2.2768     0.1688    81.0265        104     25.750 1.4137e+03 0.0000e+00
      0.737    22.2328   5.116405     2.2808     0.1478    81.0167        105     26.000 1.1762e+03 0.0000e+00
      0.740    22.2322   5.117063     2.2877     0.1441    81.0396        106     26.250 1.1143e+03 0.0000e+00
      0.743    22.2340   5.117483     2.2950     0.1446    81.0053        107     26.500 1.1814e+03 0.0000e+00
      0.745    22.2374   5.117482     2.2987     0.1478    81.0641        108     26.750 1.5949e+03 0.0000e+00
      0.744    22.2408   5.117328     2.3015     0.1418    81.0575        109     27.000 9.2683e+02 0.0000e+00
      0.742    22.2428   5.117457     2.2994     0.1414    81.0722        110     27.250 1.0165e+03 0.0000e+00
      0.740    22.2429   5.118053     2.2940     0.1405    81.1816        111     27.500 1.1208e+03 0.0000e+00
      0.740    22.2420   5.118989     2.2889     0.1405    81.1604        112     27.750 1.0724e+03 0.0000e+00
      0.742    22.2422   5.119951     2.2876     0.1771    81.1538        113     28.000 6.9624e+02 0.0000e+00
      0.745    22.2445   5.120570     2.2889     0.1766    81.0951        114     28.250 3.3028e+03 0.0000e+00
      0.747    22.2483   5.120571     2.2935     0.1762    81.1032        115     28.500 1.2647e+03 0.0000e+00
      0.746    22.2522   5.120114     2.2943     0.1766    81.1065        116     28.750 2.6352e+03 0.0000e+00
      0.745    22.2553   5.119652     2.2972     0.1757    81.0967        117     29.000 1.2810e+03 0.0000e+00
      0.742    22.2572   5.119457     2.2967     0.2100    81.1277        118     29.250 1.0503e+03 0.0000e+00
      0.741    22.2574   5.119616     2.2934     0.2059    81.1245        119     29.500 1.6963e+03 0.0000e+00
      0.740    22.2562   5.120124     2.2881     0.2082    81.1032        120     29.750 1.1886e+03 0.0000e+00
      0.741    22.2547   5.120817     2.2796     0.2045    81.1196        121     30.000 1.3587e+03 0.0000e+00
      0.742    22.2540   5.121425     2.2713     0.1519    81.1147        122     30.250 8.2942e+02 0.0000e+00
      0.744    22.2546   5.121691     2.2635     0.1542    81.1098        123     30.500 1.4698e+03 0.0000e+00
      0.745    22.2561   5.121488     2.2562     0.1560    81.0967        124     30.750 1.4181e+03 0.0000e+00
      0.745    22.2576   5.120980     2.2500     0.1533    81.0641        125     31.000 1.0474e+03 0.0000e+00
      0.743    22.2583   5.120552     2.2419     0.1446    81.0575        126     31.250 1.1677e+03 0.0000e+00
      0.741    22.2579   5.120539     2.2323     0.1473    81.0673        127     31.500 1.9574e+03 0.0000e+00
      0.741    22.2567   5.121020     2.2247     0.1473    81.0967        128     31.750 8.3671e+02 0.0000e+00
      0.742    22.2555   5.121708     2.2192     0.1487    81.1147        129     32.000 1.1273e+03 0.0000e+00
      0.743    22.2555   5.122145     2.2127     0.1459    81.0935        130     32.250 1.2309e+03 0.0000e+00
      0.745    22.2567   5.122039     2.2098     0.1560    81.1408        131     32.500 1.2740e+03 0.0000e+00
      0.745    22.2585   5.121505     2.2075     0.1565    81.1489        132     32.750 1.1432e+03 0.0000e+00
      0.745    22.2603   5.120937     2.2040     0.1505    81.1473        133     33.000 2.2220e+03 0.0000e+00
      0.744    22.2618   5.120581     2.1981     0.1533    81.1424        134     33.250 2.4318e+03 0.0000e+00
      0.744    22.2627   5.120417     2.1908     0.2032    81.0788        135     33.500 9.6079e+02 0.0000e+00
      0.744    22.2629   5.120369     2.1794     0.2114    81.0935        136     33.750 1.3529e+03 0.0000e+00
      0.744    22.2623   5.120483     2.1690     0.2023    81.0755        137     34.000 1.5955e+03 0.0000e+00
      0.744    22.2614   5.120891     2.1582     0.2050    81.1375        138     34.250 9.3407e+02 0.0000e+00
      0.746    22.2610   5.121577     2.1466     0.1688    81.1424        139     34.500 1.3987e+03 0.0000e+00
      0.748    22.2614   5.122252     2.1355     0.1702    81.1343        140     34.750 1.3782e+03 0.0000e+00
      0.751    22.2626   5.122506     2.1285     0.1670    81.1604        141     35.000 1.1668e+03 0.0000e+00
      0.751    22.2640   5.122202     2.1263     0.1670    81.1359        142     35.250 2.6322e+03 0.0000e+00
      0.750    22.2649   5.121673     2.1292     0.1698    81.1277        143     35.500 1.7063e+03 0.0000e+00
      0.748    22.2649   5.121390     2.1312     0.1221    81.1604        144     35.750 1.4707e+03 0.0000e+00
      0.746    22.2637   5.121619     2.1326     0.1253    81.1245        145     36.000 1.1576e+03 0.0000e+00
      0.746    22.2615   5.122302     2.1355     0.1244    81.1228        146     36.250 8.5297e+02 0.0000e+00
      0.748    22.2595   5.123056     2.1381     0.1253    81.1212        147     36.500 8.4324e+02 0.0000e+00
      0.750    22.2582   5.123376     2.1421     0.1940    81.1245        148     36.750 3.2695e+03 0.0000e+00
      0.750    22.2578   5.123053     2.1462     0.1904    81.1179        149     37.000 9.6584e+02 0.0000e+00
      0.749    22.2571   5.122422     2.1516     0.1881    81.1261        150     37.250 8.5198e+02 0.0000e+00
      0.746    22.2551   5.122063     2.1614     0.1913    80.9596        151     37.500 9.2269e+02 0.0000e+00
      0.744    22.2516   5.122295     2.1743     0.1876    80.9743        152     37.750 9.4540e+02 0.0000e+00
      0.745    22.2478   5.122939     2.1975     0.1913    80.9792        153     38.000 1.2553e+03 0.0000e+00
      0.747    22.2456   5.123540     2.2234     0.1926    80.9874        154     38.250 8.5264e+02 0.0000e+00
      0.751    22.2457   5.123731     2.2412     0.1926    81.0429        155     38.500 1.0177e+03 0.0000e+00
      0.753    22.2472   5.123386     2.2545     0.1904    81.0396        156     38.750 2.5391e+03 0.0000e+00
      0.753    22.2487   5.122710     2.2644     0.1542    81.0478        157     39.000 1.1877e+03 0.0000e+00
      0.751    22.2492   5.122089     2.2753     0.1501    81.1604        158     39.250 1.1564e+03 0.0000e+00
      0.750    22.2480   5.121803     2.2863     0.1551    81.1702        159     39.500 1.8688e+03 0.0000e+00
      0.748    22.2449   5.121949     2.2954     0.1519    81.1669        160     39.750 1.1524e+03 0.0000e+00
      0.748    22.2411   5.122401     2.3015     0.1707    81.1473        161     40.000 1.9107e+03 0.0000e+00
      0.749    22.2380   5.122851     2.3049     0.1711    81.0167        162     40.250 8.3249e+02 0.0000e+00
      0.750    22.2362   5.123038     2.3049     0.1647    81.0265        163     40.500 2.8606e+03 0.0000e+00
      0.751    22.2357   5.122886     2.3060     0.1670    81.0298        164     40.750 6.0514e+02 0.0000e+00
      0.750    22.2358   5.122527     2.3042     0.1688    81.1881        165     41.000 1.4063e+03 0.0000e+00
      0.748    22.2360   5.122195     2.2992     0.1336    81.1979        166     41.250 7.9313e+02 0.0000e+00
      0.745    22.2357   5.122069     2.2908     0.1340    81.1849        167     41.500 1.7330e+03 0.0000e+00
      0.744    22.2350   5.122254     2.2829     0.1318    81.1702        168     41.750 9.5948e+02 0.0000e+00
      0.744    22.2344   5.122696     2.2750     0.1327    81.1816        169     42.000 1.0826e+03 0.0000e+00
      0.746    22.2347   5.123179     2.2654     0.1533    81.1734        170     42.250 5.7196e+02 0.0000e+00
      0.748    22.2367   5.123498     2.2552     0.1546    81.1767        171     42.500 1.4647e+03 0.0000e+00
      0.750    22.2401   5.123541     2.2457     0.1519    81.1228        172     42.750 1.1184e+03 0.0000e+00
      0.750    22.2439   5.123304     2.2397     0.1542    81.1392        173     43.000 6.4200e+02 0.0000e+00
      0.747    22.2472   5.122919     2.2307     0.1958    81.1179        174     43.250 8.2909e+02 0.0000e+00
      0.743    22.2494   5.122608     2.2186     0.1972    81.0755        175     43.500 1.0341e+03 0.0000e+00
      0.739    22.2502   5.122559     2.2075     0.2004    81.1081        176     43.750 1.0606e+03 0.0000e+00
      0.736    22.2494   5.122856     2.1945     0.1963    81.1179        177     44.000 1.8831e+03 0.0000e+00
      0.735    22.2479   5.123355     2.1839     0.1991    81.1636        178     44.250 5.9871e+02 0.0000e+00
      0.735    22.2468   5.123741     2.1809     0.1551    81.1408        179     44.500 1.2115e+03 0.0000e+00
      0.735    22.2469   5.123813     2.1885     0.1542    81.1506        180     44.750 1.0299e+03 0.0000e+00
      0.734    22.2479   5.123691     2.2023     0.1533    81.1294        181     45.000 8.4111e+02 0.0000e+00
      0.733    22.2494   5.123676     2.2161     0.1551    81.2746        182     45.250 1.6247e+03 0.0000e+00
      0.733    22.2512   5.123930     2.2280     0.1679    81.2877        183     45.500 1.7476e+03 0.0000e+00
      0.734    22.2529   5.124399     2.2373     0.1702    81.2648        184     45.750 1.5359e+03 0.0000e+00
      0.735    22.2548   5.124850     2.2416     0.1670    81.0445        185     46.000 8.3622e+02 0.0000e+00
      0.736    22.2572   5.125016     2.2460     0.1698    81.0592        186     46.250 1.1725e+03 0.0000e+00
      0.735    22.2597   5.124882     2.2502     0.1446    81.0641        187     46.500 1.0195e+03 0.0000e+00
      0.733    22.2617   5.124726     2.2547     0.1464    81.0412        188     46.750 6.7701e+02 0.0000e+00
      0.731    22.2627   5.124872     2.2568     0.1469    81.1065        189     47.000 6.9394e+02 0.0000e+00
      0.732    22.2625   5.125464     2.2600     0.1418    81.1114        190     47.250 2.6227e+02 0.0000e+00
      0.734    22.2621   5.126354     2.2625     0.1478    81.1049        191     47.500 9.2611e+02 0.0000e+00
      0.739    22.2627   5.127192     2.2645     0.1217    81.1000        192     47.750 1.2730e+03 0.0000e+00
      0.743    22.2646   5.127580     2.2687     0.1263    81.1032        193     48.000 1.2671e+03 0.0000e+00
      0.745    22.2670   5.127331     2.2736     0.1208    81.0869        194     48.250 9.8884e+02 0.0000e+00
      0.745    22.2686   5.126707     2.2780     0.1286    81.1947        195     48.500 8.4867e+02 0.0000e+00
      0.743    22.2686   5.126193     2.2871     0.1409    81.1979        196     48.750 1.6806e+03 0.0000e+00
      0.739    22.2665   5.126137     2.2996     0.1400    81.1881        197     49.000 1.6773e+03 0.0000e+00
      0.737    22.2627   5.126614     2.3122     0.1391    81.1816        198     49.250 6.8923e+02 0.0000e+00
      0.738    22.2588   5.127370     2.3245     0.1391    81.1538        199     49.500 1.5275e+03 0.0000e+00
      0.741    22.2570   5.128025     2.3313     0.1418    81.1604        200     49.750 6.8482e+02 0.0000e+00
      0.743    22.2577   5.128281     2.3335     0.1386    81.1604        201     50.000 1.1320e+03 0.0000e+00
      0.744    22.2600   5.128110     2.3364     0.1418    80.9253        202     50.250 1.5442e+03 0.0000e+00
      0.742    22.2622   5.127933     2.3371     0.1418    80.9172        203     50.500 1.1851e+03 0.0000e+00
      0.739    22.2631   5.128127     2.3406     0.1373    80.9074        204     50.750 5.1484e+02 0.0000e+00
      0.737    22.2629   5.128637     2.3474     0.2375    81.1620        205     51.000 7.8760e+02 0.0000e+00
      0.737    22.2629   5.129237     2.3576     0.2407    81.1636        206     51.250 9.7093e+02 0.0000e+00
      0.739    22.2645   5.129751     2.3701     0.2416    81.1392        207     51.500 9.8903e+02 0.0000e+00
      0.740    22.2676   5.130095     2.3771     0.2430    81.1538        208     51.750 4.1375e+02 0.0000e+00
      0.742    22.2713   5.130352     2.3799     0.2325    81.1098        209     52.000 7.0977e+02 0.0000e+00
      0.744    22.2750   5.130689     2.3803     0.2361    81.1081        210     52.250 4.6996e+02 0.0000e+00
      0.746    22.2786   5.131068     2.3743     0.2334    81.0967        211     52.500 1.0197e+03 0.0000e+00
      0.747    22.2821   5.131291     2.3623     0.2357    81.0984        212     52.750 1.2231e+03 0.0000e+00
      0.747    22.2853   5.131247     2.3487     0.2311    81.0869        213     53.000 7.2851e+02 0.0000e+00
      0.746    22.2880   5.131068     2.3305     0.2219    81.0869        214     53.250 7.4760e+02 0.0000e+00
      0.746    22.2902   5.131092     2.3156     0.2219    81.0510        215     53.500 5.2505e+02 0.0000e+00
      0.746    22.2922   5.131520     2.3013     0.2187    81.0086        216     53.750 1.2009e+03 0.0000e+00
      0.747    22.2939   5.132168     2.2866     0.2197    81.0363        217     54.000 5.2853e+02 0.0000e+00
      0.748    22.2954   5.132595     2.2741     0.1835    81.0118        218     54.250 7.3549e+02 0.0000e+00
      0.749    22.2964   5.132499     2.2663     0.1849    81.0363        219     54.500 9.1661e+02 0.0000e+00
      0.747    22.2966   5.132040     2.2606     0.1817    81.0412        220     54.750 1.1156e+03 0.0000e+00
      0.744    22.2962   5.131651     2.2572     0.1835    81.0510        221     55.000 9.2036e+02 0.0000e+00
      0.740    22.2951   5.131614     2.2518     0.1144    80.8845        222     55.250 5.0081e+02 0.0000e+00
      0.738    22.2935   5.132027     2.2453     0.1162    80.8862        223     55.500 4.4583e+02 0.0000e+00
      0.738    22.2921   5.132780     2.2425     0.1180    80.8911        224     55.750 1.7476e+03 0.0000e+00
      0.740    22.2913   5.133510     2.2398     0.1167    80.8682        225     56.000 6.7359e+02 0.0000e+00
      0.743    22.2913   5.133813     2.2412     0.1171    81.1424        226     56.250 1.3039e+03 0.0000e+00
      0.743    22.2917   5.133560     2.2467     0.1995    81.1294        227     56.500 8.1756e+02 0.0000e+00
      0.741    22.2920   5.133074     2.2539     0.1972    81.1408        228     56.750 1.6105e+03 0.0000e+00
      0.738    22.2914   5.132838     2.2570     0.1917    81.0298        229     57.000 7.6199e+02 0.0000e+00
      0.735    22.2898   5.133051     2.2597     0.1972    81.0510        230     57.250 6.7951e+02 0.0000e+00
      0.734    22.2878   5.133543     2.2733     0.2325    81.0331        231     57.500 9.9000e+02 0.0000e+00
      0.736    22.2864   5.134003     2.2915     0.2352    81.0118        232     57.750 1.2245e+03 0.0000e+00
      0.739    22.2863   5.134225     2.3078     0.2325    81.0118        233     58.000 1.5347e+03 0.0000e+00
      0.741    22.2873   5.134159     2.3162     0.2320    81.0135        234     58.250 7.0058e+02 0.0000e+00
      0.743    22.2888   5.133870     2.3221     0.1798    81.0184        235     58.500 9.5575e+02 0.0000e+00
      0.743    22.2901   5.133553     2.3243     0.1766    81.0608        236     58.750 8.6382e+02 0.0000e+00
      0.743    22.2912   5.133387     2.3200     0.1789    81.0641        237     59.000 1.1273e+03 0.0000e+00
      0.743    22.2920   5.133407     2.3094     0.1766    81.0575        238     59.250 1.0801e+03 0.0000e+00
      0.744    22.2924   5.133546     2.2940     0.1785    81.0657        239     59.500 5.3422e+02 0.0000e+00
      0.745    22.2927   5.133746     2.2778     0.1835    81.0641        240     59.750 4.7584e+02 0.0000e+00
      0.746    22.2932   5.133997     2.2624     0.1817    81.0690        241     60.000 9.6434e+02 0.0000e+00
      0.748    22.2937   5.134234     2.2491     0.1839    81.2159        242     60.250 2.2411e+03 0.0000e+00
      0.749    22.2943   5.134288     2.2394     0.1826    81.2028        243     60.500 7.5417e+02 0.0000e+00
      0.747    22.2948   5.134056     2.2332     0.1748    81.1947        244     60.750 9.1483e+02 0.0000e+00
      0.743    22.2947   5.133646     2.2314     0.1771    81.1914        245     61.000 4.2807e+02 0.0000e+00
      0.737    22.2939   5.133272     2.2279     0.1762    81.1310        246     61.250 4.8575e+02 0.0000e+00
      0.729    22.2920   5.133093     2.2254     0.1798    81.1261        247     61.500 5.6444e+02 0.0000e+00
      0.722    22.2893   5.133187     2.2245     0.1373    81.1245        248     61.750 8.6922e+02 0.0000e+00
      0.718    22.2864   5.133549     2.2214     0.1418    81.0624        249     62.000 6.3295e+02 0.0000e+00
      0.718    22.2843   5.134032     2.2212     0.1395    81.0559        250     62.250 7.9933e+02 0.0000e+00
      0.720    22.2835   5.134396     2.2171     0.1373    81.0608        251     62.500 6.2148e+02 0.0000e+00
      0.721    22.2840   5.134459     2.2190     0.1414    81.0298        252     62.750 3.5379e+02 0.0000e+00
      0.719    22.2849   5.134254     2.2195    -0.0207    81.1538        253     63.000 3.0246e+02 0.0000e+00
      0.715    22.2853   5.134031     2.2223    -0.0184    81.1620        254     63.250 2.1456e+03 0.0000e+00
      0.709    22.2846   5.134018     2.2232    -0.0207    81.1538        255     63.500 1.1217e+03 0.0000e+00
      0.705    22.2829   5.134272     2.2323    -0.0202    81.1424        256     63.750 8.3087e+02 0.0000e+00
      0.705    22.2811   5.134713     2.2547     0.2059    81.1457        257     64.000 1.9505e+03 0.0000e+00
      0.709    22.2807   5.135202     2.2847     0.2064    81.1555        258     64.250 1.0456e+03 0.0000e+00
      0.714    22.2820   5.135543     2.3102     0.2082    80.9253        259     64.500 6.2573e+02 0.0000e+00
      0.718    22.2844   5.135561     2.3355     0.2059    80.9172        260     64.750 8.2555e+02 0.0000e+00
      0.718    22.2864   5.135366     2.3590     0.2032    80.9368        261     65.000 5.3214e+02 0.0000e+00
      0.715    22.2872   5.135223     2.3787     0.2407    80.9270        262     65.250 1.0873e+03 0.0000e+00
      0.711    22.2866   5.135261     2.3904     0.2403    80.9988        263     65.500 1.1879e+03 0.0000e+00
      0.708    22.2854   5.135447     2.3977     0.2403    81.0021        264     65.750 1.0556e+03 0.0000e+00
      0.708    22.2845   5.135666     2.4072     0.2444    80.9841        265     66.000 6.1332e+02 0.0000e+00
      0.710    22.2849   5.135822     2.4119    29.3041    80.9678        266     66.250 4.7069e+02 0.0000e+00
      0.712    22.2865   5.135848     2.4142    29.3046    80.9612        267     66.500 6.8736e+02 0.0000e+00
      0.713    22.2887   5.135740     2.4167    29.3073    80.9661        268     66.750 3.3380e+02 0.0000e+00
      0.711    22.2908   5.135632     2.4231    29.3114    81.0216        269     67.000 4.6840e+02 0.0000e+00
      0.708    22.2922   5.135662     2.4302     0.2119    81.0233        270     67.250 1.2629e+03 0.0000e+00
      0.706    22.2928   5.135846     2.4343     0.2132    81.0118        271     67.500 7.9313e+02 0.0000e+00
      0.705    22.2932   5.136108     2.4318     0.2160    81.0151        272     67.750 7.0853e+02 0.0000e+00
      0.705    22.2939   5.136356     2.4249     0.2142    80.8894        273     68.000 7.4629e+02 0.0000e+00
      0.707    22.2950   5.136561     2.4166     0.2151    80.8992        274     68.250 8.3589e+02 0.0000e+00
      0.708    22.2966   5.136753     2.4049     0.1048    80.9009        275     68.500 5.5422e+02 0.0000e+00
      0.709    22.2983   5.136920     2.3906     0.1011    81.1734        276     68.750 4.2599e+02 0.0000e+00
      0.708    22.3000   5.136957     2.3744     0.1052    81.1816        277     69.000 1.3790e+03 0.0000e+00
      0.705    22.3013   5.136860     2.3578     0.1015    81.1767        278     69.250 1.2923e+03 0.0000e+00
      0.702    22.3019   5.136825     2.3461     0.1253    81.1734        279     69.500 4.3125e+02 0.0000e+00
      0.699    22.3019   5.137004     2.3318     0.1244    81.0412        280     69.750 2.9348e+02 0.0000e+00
      0.698    22.3015   5.137365     2.3183     0.1267    81.0527        281     70.000 1.1780e+03 0.0000e+00
      0.699    22.3012   5.137741     2.3117     0.1258    81.0363        282     70.250 1.2319e+03 0.0000e+00
      0.700    22.3014   5.137919     2.3120     0.1322    80.9841        283     70.500 1.1909e+03 0.0000e+00
      0.700    22.3020   5.137798     2.3115     0.1331    80.9988        284     70.750 2.1712e+03 0.0000e+00
      0.698    22.3024   5.137504     2.3091     0.1308    80.9955        285     71.000 1.4633e+03 0.0000e+00
      0.694    22.3024   5.137254     2.3043     0.1322    80.9792        286     71.250 1.7418e+03 0.0000e+00
      0.689    22.3015   5.137158     2.2960     0.1345    80.9727        287     71.500 1.1937e+03 0.0000e+00
      0.684    22.3000   5.137235     2.2898     0.1766    80.9776        288     71.750 7.9344e+02 0.0000e+00
      0.681    22.2984   5.137416     2.2888     0.1771    80.9661        289     72.000 9.4835e+02 0.0000e+00
      0.678    22.2972   5.137544     2.2901     0.1748    80.9759        290     72.250 1.2355e+03 0.0000e+00
      0.676    22.2967   5.137508     2.2946     0.1766    80.9498        291     72.500 1.5139e+03 0.0000e+00
      0.672    22.2965   5.137350     2.2972     0.1762    80.9792        292     72.750 1.4567e+03 0.0000e+00
      0.666    22.2965   5.137195     2.2992     0.1789    80.7997        293     73.000 1.2119e+03 0.0000e+00
      0.661    22.2962   5.137129     2.2952     0.1739    80.8029        294     73.250 1.0132e+03 0.0000e+00
      0.656    22.2956   5.137164     2.2940     0.1762    80.8160        295     73.500 9.4008e+02 0.0000e+00
      0.652    22.2949   5.137254     2.2946     0.1844    80.6887        296     73.750 7.1281e+02 0.0000e+00
      0.650    22.2944   5.137323     2.2951     0.1839    80.6919        297     74.000 1.7705e+03 0.0000e+00
      0.648    22.2941   5.137308     2.2958     0.1821    80.6854        298     74.250 8.6972e+02 0.0000e+00
      0.646    22.2939   5.137211     2.2924     0.1844    80.6887        299     74.500 6.8163e+02 0.0000e+00
      0.643    22.2936   5.137088     2.2875     0.1821    80.8666        300     74.750 4.5300e+02 0.0000e+00
      0.640    22.2931   5.137006     2.2809     0.1546    80.8470        301     75.000 9.9347e+02 0.0000e+00
      0.638    22.2923   5.137004     2.2733     0.1556    80.8601        302     75.250 1.5804e+03 0.0000e+00
      0.636    22.2912   5.137071     2.2692     0.1546    80.8454        303     75.500 1.4074e+03 0.0000e+00
      0.637    22.2903   5.137131     2.2632     0.1542    80.8535        304     75.750 1.3105e+03 0.0000e+00
      0.637    22.2900   5.137110     2.2596     0.1688    80.8437        305     76.000 1.0359e+03 0.0000e+00
      0.635    22.2901   5.137024     2.2596     0.1688    80.7997        306     76.250 1.6672e+03 0.0000e+00
      0.631    22.2902   5.136952     2.2599     0.1702    80.7801        307     76.500 1.0753e+03 0.0000e+00
      0.627    22.2899   5.136953     2.2636     0.1698    80.7866        308     76.750 1.5648e+03 0.0000e+00
      0.625    22.2894   5.137030     2.2711     0.0970    80.7833        309     77.000 1.5952e+03 0.0000e+00
      0.627    22.2891   5.137145     2.2802     0.0965    68.8570        310     77.250 1.6033e+03 0.0000e+00
      0.631    22.2896   5.137229     2.2920     0.0961    68.8782        311     77.500 8.7771e+02 0.0000e+00
      0.635    22.2910   5.137159     2.3062     0.0970    68.8815        312     77.750 2.8318e+03 0.0000e+00
      0.636    22.2927   5.136851     2.3262     0.0956    75.9194        313     78.000 1.5999e+03 0.0000e+00
      0.633    22.2940   5.136348     2.3495     0.1542    75.9129        314     78.250 8.4029e+02 0.0000e+00
      0.629    22.2942   5.135653     2.3662     0.1560    75.9178        315     78.500 1.5587e+03 0.0000e+00
      0.626    22.2936   5.135084     2.3796     0.1560    75.8868        316     78.750 1.6124e+03 0.0000e+00
      0.626    22.2930   5.135281     2.3966     0.1533    55.7963        317     79.000 2.0024e+03 0.0000e+00
      0.628    22.2931   5.136065     2.4120     0.2814    55.7963        318     79.250 9.7320e+02 0.0000e+00
      0.631    22.2940   5.136698     2.4227     0.2782    55.8110        319     79.500 8.6955e+02 0.0000e+00
      0.633    22.2952   5.137001     2.4293     0.2755    83.6495        320     79.750 1.0743e+03 0.0000e+00
      0.633    22.2961   5.137153     2.4337     0.2792    83.6429        321     80.000 2.0827e+03 0.0000e+00
      0.633    22.2962   5.137242     2.4312     0.2760    83.6380        322     80.250 1.0610e+03 0.0000e+00
      0.632    22.2957   5.137290     2.4256     0.1203    83.5907        323     80.500 1.4251e+03 0.0000e+00
      0.631    22.2949   5.137315     2.4143     0.1180    83.5923        324     80.750 1.6351e+03 0.0000e+00
      0.629    22.2940   5.137339     2.4014     0.1176    83.6021        325     81.000 1.3414e+03 0.0000e+00
      0.627    22.2930   5.137373     2.3916     0.1180    83.5760        326     81.250 1.5651e+03 0.0000e+00
      0.627    22.2919   5.137417     2.3838     0.1455    83.7817        327     81.500 1.1326e+03 0.0000e+00
      0.627    22.2908   5.137459     2.3804     0.1505    83.8176        328     81.750 1.1355e+03 0.0000e+00
      0.629    22.2900   5.137471     2.3767     0.1478    83.7931        329     82.000 1.3440e+03 0.0000e+00
      0.630    22.2895   5.137442     2.3753     0.1464    83.8388        330     82.250 1.4154e+03 0.0000e+00
      0.630    22.2891   5.137393     2.3701     0.1734    83.8078        331     82.500 1.5608e+03 0.0000e+00
      0.629    22.2887   5.137347     2.3636     0.1771    83.8453        332     82.750 1.5859e+03 0.0000e+00
      0.628    22.2883   5.137314     2.3611     0.1766    83.9237        333     83.000 1.8225e+03 0.0000e+00
      0.628    22.2877   5.137286     2.3570     0.1757    83.9171        334     83.250 2.0165e+03 0.0000e+00
      0.628    22.2873   5.137252     2.3481     0.1789    83.9335        335     83.500 1.0251e+03 0.0000e+00
      0.628    22.2869   5.137208     2.3409     0.1107    83.9498        336     83.750 1.4390e+03 0.0000e+00
      0.629    22.2865   5.137162     2.3285     0.1130    83.8551        337     84.000 1.0968e+03 0.0000e+00
      0.630    22.2863   5.137121     2.3138     0.1112    83.8502        338     84.250 1.5242e+03 0.0000e+00
      0.632    22.2861   5.137088     2.3001     0.1093    83.8535        339     84.500 9.3716e+02 0.0000e+00
      0.634    22.2859   5.137061     2.2874     0.1180    83.9367        340     84.750 1.5198e+03 0.0000e+00
      0.637    22.2857   5.137040     2.2737     0.1208    83.9416        341     85.000 1.5743e+03 0.0000e+00
      0.640    22.2854   5.137022     2.2586     0.1185    83.9318        342     85.250 1.7438e+03 0.0000e+00
      0.643    22.2851   5.137003     2.2449     0.1162    83.9286        343     85.500 1.3261e+03 0.0000e+00
      0.647    22.2848   5.136985     2.2274     0.0928    83.8943        344     85.750 1.8393e+03 0.0000e+00
      0.652    22.2844   5.136972     2.2114     0.0956    83.8959        345     86.000 1.4604e+03 0.0000e+00
      0.656    22.2841   5.136962     2.1952     0.0965    83.8959        346     86.250 1.2549e+03 0.0000e+00
      0.661    22.2837   5.136955     2.1800     0.0979    83.7980        347     86.500 9.8443e+02 0.0000e+00
      0.665    22.2834   5.136952     2.1646     0.0956    83.7996        348     86.750 1.1390e+03 0.0000e+00
      0.669    22.2830   5.136950     2.1476     0.1221    83.7898        349     87.000 8.4900e+02 0.0000e+00
      0.674    22.2826   5.136944     2.1354     0.1253    83.8274        350     87.250 6.2233e+02 0.0000e+00
      0.679    22.2821   5.136938     2.1256     0.1263    83.8388        351     87.500 8.1804e+02 0.0000e+00
      0.685    22.2816   5.136936     2.1160     0.1253    83.8420        352     87.750 7.7363e+02 0.0000e+00
      0.690    22.2812   5.136938     2.1059     0.1757    83.8323        353     88.000 8.0808e+02 0.0000e+00
      0.695    22.2809   5.136943     2.0941     0.1752    83.8812        354     88.250 1.6357e+03 0.0000e+00
      0.700    22.2806   5.136948     2.0819     0.1762    83.8812        355     88.500 1.6130e+03 0.0000e+00
      0.704    22.2804   5.136949     2.0713     0.1752    83.8633        356     88.750 1.0363e+03 0.0000e+00
      0.709    22.2801   5.136951     2.0641     0.2132    83.9286        357     89.000 8.8801e+02 0.0000e+00
      0.713    22.2799   5.136962     2.0558     0.2142    83.9237        358     89.250 1.2595e+03 0.0000e+00
      0.716    22.2798   5.136983     2.0493     0.2114    83.9481        359     89.500 1.1331e+03 0.0000e+00
      0.717    22.2796   5.137013     2.0430     0.2132    83.8404        360     89.750 7.3921e+02 0.0000e+00
      0.718    22.2793   5.137035     2.0374     0.2119    83.8306        361     90.000 1.4848e+03 0.0000e+00
      0.718    22.2791   5.137036     2.0349     0.1679    83.8339        362     90.250 1.0612e+03 0.0000e+00
      0.719    22.2789   5.137022     2.0343     0.1688    83.8388        363     90.500 8.1963e+02 0.0000e+00
      0.720    22.2787   5.137004     2.0394     0.1661    83.8045        364     90.750 1.5548e+03 0.0000e+00
      0.721    22.2787   5.136986     2.0518     0.1698    83.7849        365     91.000 2.0742e+03 0.0000e+00
      0.723    22.2787   5.136968     2.0730     0.1913    83.7833        366     91.250 9.1947e+02 0.0000e+00
      0.724    22.2787   5.136948     2.0936     0.1913    83.9024        367     91.500 1.3556e+03 0.0000e+00
      0.724    22.2788   5.136928     2.1097     0.1908    83.9090        368     91.750 7.8089e+02 0.0000e+00
      0.724    22.2788   5.136912     2.1182     0.1926    83.9122        369     92.000 6.2988e+02 0.0000e+00
      0.723    22.2789   5.136902     2.1217     0.1885    83.8633        370     92.250 4.6541e+02 0.0000e+00
      0.722    22.2790   5.136897     2.1202     0.1670    83.4242        371     92.500 8.2203e+02 0.0000e+00
      0.721    22.2791   5.136895     2.1165     0.1688    83.4307        372     92.750 2.9030e+02 0.0000e+00
      0.720    22.2792   5.136894     2.1098     0.1679    83.4177        373     93.000 8.8285e+02 0.0000e+00
      0.720    22.2792   5.136899     2.1058     0.1693    83.7735        374     93.250 1.6617e+03 0.0000e+00
      0.721    22.2793   5.136909     2.0965     0.1913    83.7898        375     93.500 4.7919e+02 0.0000e+00
      0.721    22.2793   5.136921     2.0893     0.1894    83.7686        376     93.750 9.6528e+02 0.0000e+00
      0.721    22.2793   5.136929     2.0845     0.1894    83.7523        377     94.000 1.1260e+03 0.0000e+00
      0.722    22.2794   5.136930     2.0778     0.1904    83.7539        378     94.250 5.3797e+02 0.0000e+00
      0.722    22.2795   5.136928     2.0713     0.1835    83.7686        379     94.500 1.2593e+03 0.0000e+00
      0.723    22.2799   5.136929     2.0674     0.1844    83.7409        380     94.750 5.6313e+02 0.0000e+00
      0.723    22.2805   5.136935     2.0614     0.1844    83.8518        381     95.000 4.1528e+02 0.0000e+00
      0.722    22.2812   5.136939     2.0584     0.1826    83.8486        382     95.250 1.4390e+03 0.0000e+00
      0.720    22.2818   5.136941     2.0600     0.1835    83.8535        383     95.500 1.3044e+03 0.0000e+00
      0.718    22.2821   5.136947     2.0742     0.1679    83.8274        384     95.750 9.0281e+02 0.0000e+00
      0.717    22.2823   5.136966     2.1020     0.1679    83.8225        385     96.000 1.0411e+03 0.0000e+00
      0.719    22.2827   5.137005     2.1335     0.1679    83.8420        386     96.250 6.3740e+02 0.0000e+00
      0.722    22.2832   5.137054     2.1627     0.1688    78.6125        387     96.500 8.0714e+02 0.0000e+00
      0.724    22.2841   5.137085     2.1804     0.1459    78.6076        388     96.750 1.8497e+03 0.0000e+00
      0.725    22.2850   5.137090     2.1918     0.1473    78.6076        389     97.000 1.2882e+03 0.0000e+00
      0.724    22.2859   5.137086     2.1975     0.1505    78.6174        390     97.250 1.3906e+03 0.0000e+00
      0.721    22.2864   5.137096     2.2025     0.1492    83.7425        391     97.500 1.1775e+03 0.0000e+00
      0.720    22.2865   5.137135     2.2048     0.2059    83.7686        392     97.750 1.5145e+03 0.0000e+00
      0.720    22.2865   5.137202     2.2049     0.2045    83.7588        393     98.000 1.3747e+03 0.0000e+00
      0.722    22.2868   5.137276     2.2034     0.2050    83.8975        394     98.250 1.4862e+03 0.0000e+00
      0.725    22.2877   5.137325     2.1985     0.2045    83.9106        395     98.500 1.1746e+03 0.0000e+00
      0.726    22.2889   5.137331     2.1965     0.2045    83.9122        396     98.750 1.1914e+03 0.0000e+00
      0.726    22.2902   5.137317     2.1949     0.1276    83.7588        397     99.000 1.4124e+03 0.0000e+00
      0.725    22.2913   5.137327     2.1939     0.1276    83.7621        398     99.250 7.7198e+02 0.0000e+00
      0.723    22.2921   5.137389     2.1917     0.1253    83.7555        399     99.500 1.2575e+03 0.0000e+00
      0.723    22.2925   5.137498     2.1942     0.1286    83.7490        400     99.750 1.3138e+03 0.0000e+00
      0.723    22.2929   5.137610     2.1978     0.1675    83.9122        401    100.000 1.0493e+03 0.0000e+00
      0.724    22.2934   5.137663     2.2075     0.1679    83.9122        402    100.250 1.4449e+03 0.0000e+00
      0.724    22.2940   5.137650     2.2194     0.1707    83.9171        403    100.500 1.1895e+03 0.0000e+00
      0.722    22.2945   5.137627     2.2308     0.1693    83.8535        404    100.750 8.7583e+02 0.0000e+00
      0.720    22.2947   5.137647     2.2366     0.1908    83.8535        405    101.000 1.3184e+03 0.0000e+00
      0.719    22.2947   5.137721     2.2416     0.1913    83.8535        406    101.250 1.7802e+03 0.0000e+00
      0.719    22.2944   5.137814     2.2491     0.1876    83.8388        407    101.500 9.1572e+02 0.0000e+00
      0.720    22.2942   5.137877     2.2586     0.1899    83.8567        408    101.750 1.0722e+03 0.0000e+00
      0.721    22.2941   5.137884     2.2652     0.1885    83.8437        409    102.000 2.0981e+03 0.0000e+00
      0.722    22.2942   5.137842     2.2696     0.2073    83.8600        410    102.250 8.3899e+02 0.0000e+00
      0.723    22.2943   5.137788     2.2675     0.2045    83.8355        411    102.500 9.8443e+02 0.0000e+00
      0.723    22.2945   5.137752     2.2623     0.2045    83.8420        412    102.750 7.9777e+02 0.0000e+00
      0.723    22.2947   5.137741     2.2525     0.2082    83.8453        413    103.000 8.7566e+02 0.0000e+00
      0.724    22.2948   5.137750     2.2415     0.1963    83.8698        414    103.250 1.1435e+03 0.0000e+00
      0.724    22.2948   5.137776     2.2293     0.1972    83.8747        415    103.500 7.5652e+02 0.0000e+00
      0.724    22.2948   5.137808     2.2187     0.1986    83.8682        416    103.750 1.1526e+03 0.0000e+00
      0.725    22.2948   5.137824     2.2033     0.1972    83.8714        417    104.000 1.5682e+03 0.0000e+00
      0.724    22.2948   5.137812     2.1923     0.1885    83.8812        418    104.250 1.0263e+03 0.0000e+00
      0.723    22.2947   5.137797     2.1836     0.1926    83.8812        419    104.500 1.6980e+03 0.0000e+00
      0.722    22.2946   5.137813     2.1704     0.1904    83.8600        420    104.750 8.8870e+02 0.0000e+00
      0.721    22.2943   5.137871     2.1598     0.1894    83.8176        421    105.000 1.3710e+03 0.0000e+00
      0.723    22.2942   5.137943     2.1482     0.1917    83.8143        422    105.250 1.3049e+03 0.0000e+00
      0.724    22.2944   5.137982     2.1385     0.1789    83.8061        423    105.500 7.2540e+02 0.0000e+00
      0.726    22.2948   5.137972     2.1332     0.1798    83.7670        424    105.750 1.2398e+03 0.0000e+00
      0.726    22.2954   5.137949     2.1326     0.1762    83.7670        425    106.000 1.5207e+03 0.0000e+00
      0.726    22.2960   5.137949     2.1353     0.1748    83.7686        426    106.250 7.4542e+02 0.0000e+00
      0.725    22.2964   5.137976     2.1471     0.1638    83.7751        427    106.500 8.6215e+02 0.0000e+00
      0.724    22.2966   5.138007     2.1659     0.1601    83.7719        428    106.750 1.4542e+03 0.0000e+00
      0.722    22.2966   5.138013     2.1868     0.1620    83.7833        429    107.000 7.1365e+02 0.0000e+00
      0.719    22.2966   5.137995     2.2032     0.1638    83.7784        430    107.250 7.6347e+02 0.0000e+00
      0.716    22.2965   5.137984     2.2123     0.1592    83.8486        431    107.500 1.0201e+03 0.0000e+00
      0.712    22.2963   5.138006     2.2159     0.1904    83.8551        432    107.750 1.1625e+03 0.0000e+00
      0.710    22.2960   5.138069     2.2161     0.1904    83.8535        433    108.000 1.1537e+03 0.0000e+00
      0.708    22.2956   5.138153     2.2151     0.1894    83.8388        434    108.250 1.2815e+03 0.0000e+00
      0.707    22.2953   5.138213     2.2153     0.1913    83.9628        435    108.500 1.5887e+03 0.0000e+00
      0.705    22.2952   5.138228     2.2153     0.1968    83.9677        436    108.750 1.1856e+03 0.0000e+00
      0.702    22.2952   5.138229     2.2190     0.2004    83.9824        437    109.000 8.1534e+02 0.0000e+00
      0.700    22.2952   5.138255     2.2233     0.1995    83.9335        438    109.250 7.9375e+02 0.0000e+00
      0.699    22.2952   5.138323     2.2296     0.1968    83.9318        439    109.500 1.6666e+03 0.0000e+00
      0.700    22.2952   5.138413     2.2362     0.1899    83.9351        440    109.750 1.4353e+03 0.0000e+00
      0.702    22.2955   5.138470     2.2419     0.1904    83.8453        441    110.000 1.1764e+03 0.0000e+00
      0.702    22.2961   5.138462     2.2486     0.1908    83.8388        442    110.250 1.3723e+03 0.0000e+00
      0.701    22.2966   5.138436     2.2517     0.1940    83.8600        443    110.500 1.2211e+03 0.0000e+00
      0.699    22.2969   5.138458     2.2524     0.1899    83.8420        444    110.750 1.0357e+03 0.0000e+00
      0.698    22.2969   5.138542     2.2563     0.2137    83.9237        445    111.000 1.2319e+03 0.0000e+00
      0.700    22.2970   5.138657     2.2667     0.2132    83.9318        446    111.250 7.3491e+02 0.0000e+00
      0.703    22.2974   5.138746     2.2786     0.2132    83.9351        447    111.500 7.1643e+02 0.0000e+00
      0.705    22.2981   5.138768     2.2975     0.2128    83.8600        448    111.750 1.3023e+03 0.0000e+00
      0.705    22.2988   5.138750     2.3249     0.2782    83.8535        449    112.000 9.1217e+02 0.0000e+00
      0.704    22.2993   5.138752     2.3505     0.2805    83.8567        450    112.250 1.1484e+03 0.0000e+00
      0.703    22.2994   5.138801     2.3656     0.2801    83.9335        451    112.500 1.0839e+03 0.0000e+00
      0.703    22.2992   5.138877     2.3735     0.2750    83.9498        452    112.750 1.5051e+03 0.0000e+00
      0.705    22.2992   5.138932     2.3732     0.1748    83.9481        453    113.000 1.2352e+03 0.0000e+00
      0.707    22.2994   5.138935     2.3691     0.1766    83.9383        454    113.250 7.0853e+02 0.0000e+00
      0.708    22.2997   5.138892     2.3606     0.1748    83.7898        455    113.500 5.1664e+02 0.0000e+00
      0.708    22.3000   5.138844     2.3484     0.1766    83.7800        456    113.750 9.2827e+02 0.0000e+00
      0.707    22.3003   5.138827     2.3330     0.1766    83.7784        457    114.000 8.3055e+02 0.0000e+00
      0.706    22.3003   5.138852     2.3227     0.1711    83.8143        458    114.250 1.5694e+03 0.0000e+00
      0.707    22.3003   5.138907     2.3144     0.1702    83.8029        459    114.500 7.7378e+02 0.0000e+00
      0.708    22.3002   5.138953     2.3069     0.1670    83.8176        460    114.750 1.0420e+03 0.0000e+00
      0.709    22.3002   5.138958     2.3007     0.1693    83.8584        461    115.000 7.3850e+02 0.0000e+00
      0.708    22.3002   5.138925     2.2943     0.1739    83.8616        462    115.250 6.0362e+02 0.0000e+00
      0.705    22.3002   5.138886     2.2895     0.1771    83.8649        463    115.500 3.9220e+02 0.0000e+00
      0.702    22.3000   5.138873     2.2876     0.1780    83.8731        464    115.750 7.5799e+02 0.0000e+00
      0.700    22.2998   5.138905     2.2871     0.1766    84.0771        465    116.000 4.5255e+02 0.0000e+00
      0.701    22.2995   5.138979     2.2895     0.1546    84.0869        466    116.250 3.9843e+02 0.0000e+00
      0.704    22.2995   5.139066     2.2930     0.1551    84.0934        467    116.500 8.8508e+02 0.0000e+00
      0.708    22.2998   5.139127     2.2940     0.1505    84.0542        468    116.750 1.1571e+03 0.0000e+00
      0.710    22.3005   5.139136     2.2929     0.1551    84.0608        469    117.000 8.0950e+02 0.0000e+00
      0.710    22.3013   5.139109     2.2906     0.1533    84.0395        470    117.250 1.0879e+03 0.0000e+00
      0.706    22.3018   5.139099     2.2869     0.2233    84.0428        471    117.500 1.3971e+03 0.0000e+00
      0.703    22.3018   5.139141     2.2839     0.2178    83.8110        472    117.750 1.3933e+03 0.0000e+00
      0.702    22.3017   5.139233     2.2918     0.2192    83.8176        473    118.000 8.5863e+02 0.0000e+00
      0.703    22.3016   5.139337     2.3074     0.2201    83.8225        474    118.250 1.3691e+03 0.0000e+00
      0.705    22.3019   5.139398     2.3274     0.1917    83.9041        475    118.500 1.2250e+03 0.0000e+00
      0.706    22.3025   5.139398     2.3403     0.1908    83.8845        476    118.750 8.3135e+02 0.0000e+00
      0.704    22.3030   5.139383     2.3501     0.1917    83.8845        477    119.000 2.1729e+03 0.0000e+00
      0.702    22.3033   5.139406     2.3539     0.1913    83.8894        478    119.250 1.1684e+03 0.0000e+00
      0.701    22.3033   5.139478     2.3613     0.2055    83.8910        479    119.500 1.2998e+03 0.0000e+00
      0.702    22.3033   5.139563     2.3738     0.2055    83.8731        480    119.750 1.3427e+03 0.0000e+00
      0.703    22.3034   5.139611     2.3855     0.2045    83.8698        481    120.000 1.8688e+03 0.0000e+00
      0.704    22.3037   5.139605     2.3970     0.2045    83.9237        482    120.250 6.0774e+02 0.0000e+00
      0.703    22.3040   5.139585     2.4057     0.2064    83.9318        483    120.500 1.2788e+03 0.0000e+00
      0.702    22.3042   5.139594     2.4127     0.1446    83.9204        484    120.750 9.6153e+02 0.0000e+00
      0.701    22.3041   5.139641     2.4200     0.1478    84.0249        485    121.000 1.9396e+03 0.0000e+00
      0.702    22.3039   5.139703     2.4240     0.1432    84.0249        486    121.250 5.0433e+02 0.0000e+00
      0.705    22.3039   5.139743     2.4274     0.1446    84.0118        487    121.500 1.2025e+03 0.0000e+00
      0.707    22.3040   5.139741     2.4260     0.2343    83.9204        488    121.750 9.9482e+02 0.0000e+00
      0.708    22.3042   5.139708     2.4205     0.2348    83.9302        489    122.000 1.1164e+03 0.0000e+00
      0.706    22.3043   5.139672     2.4119     0.2325    83.9106        490    122.250 8.7294e+02 0.0000e+00
      0.704    22.3042   5.139651     2.4009     0.2325    83.9335        491    122.500 6.0034e+02 0.0000e+00
      0.703    22.3038   5.139650     2.3893     0.2311    83.7376        492    122.750 1.3051e+03 0.0000e+00
      0.703    22.3033   5.139669     2.3793     0.1894    83.7588        493    123.000 9.1057e+02 0.0000e+00
      0.705    22.3028   5.139696     2.3677     0.1913    83.7343        494    123.250 1.0548e+03 0.0000e+00
      0.708    22.3026   5.139711     2.3555     0.1926    84.0249        495    123.500 8.5813e+02 0.0000e+00
      0.711    22.3026   5.139701     2.3417     0.1904    84.0118        496    123.750 1.4613e+03 0.0000e+00
      0.711    22.3027   5.139675     2.3310     0.1766    84.0020        497    124.000 1.4885e+03 0.0000e+00
      0.709    22.3027   5.139650     2.3223     0.1752    84.0036        498    124.250 8.2587e+02 0.0000e+00
      0.706    22.3026   5.139638     2.3152     0.1771    84.0085        499    124.500 1.1188e+03 0.0000e+00
      0.704    22.3023   5.139638     2.3159     0.1771    83.9971        500    124.750 2.2272e+03 0.0000e+00
      0.704    22.3020   5.139646     2.3162     0.2279    83.9987        501    125.000 7.6853e+02 0.0000e+00
      0.705    22.3017   5.139649     2.3147     0.2293    83.8910        502    125.250 8.6014e+02 0.0000e+00
      0.707    22.3015   5.139641     2.3115     0.2293    83.8910        503    125.500 1.3782e+03 0.0000e+00
      0.708    22.3015   5.139625     2.3059     0.2251    83.8926        504    125.750 1.6061e+03 0.0000e+00
      0.709    22.3015   5.139610     2.2963     0.2274    83.9824        505    126.000 1.0587e+03 0.0000e+00
      0.710    22.3015   5.139597     2.2861     0.2105    83.9824        506    126.250 1.3115e+03 0.0000e+00
      0.709    22.3016   5.139587     2.2762     0.2119    83.9840        507    126.500 9.2936e+02 0.0000e+00
      0.708    22.3016   5.139580     2.2665     0.2128    83.9579        508    126.750 1.3857e+03 0.0000e+00
      0.707    22.3015   5.139580     2.2549     0.2119    83.8910        509    127.000 1.0986e+03 0.0000e+00
      0.705    22.3014   5.139586     2.2429     0.2055    83.8992        510    127.250 8.7226e+02 0.0000e+00
      0.705    22.3012   5.139593     2.2319     0.2045    83.8975        511    127.500 1.1934e+03 0.0000e+00
      0.706    22.3008   5.139602     2.2228     0.2073    83.7539        512    127.750 1.5912e+03 0.0000e+00
      0.707    22.3005   5.139616     2.2142     0.2055    83.7506        513    128.000 6.0197e+02 0.0000e+00
      0.709    22.3003   5.139632     2.2072     0.1972    83.7441        514    128.250 1.1716e+03 0.0000e+00
      0.710    22.3004   5.139647     2.2045     0.1958    83.7963        515    128.500 8.5596e+02 0.0000e+00
      0.709    22.3006   5.139659     2.2041     0.1972    83.7963        516    128.750 1.7049e+03 0.0000e+00
      0.708    22.3008   5.139665     2.2050     0.1986    83.7963        517    129.000 1.2488e+03 0.0000e+00
      0.707    22.3009   5.139669     2.2114     0.1991    83.8045        518    129.250 1.1022e+03 0.0000e+00
      0.707    22.3010   5.139675     2.2271     0.1565    83.9449        519    129.500 1.6345e+03 0.0000e+00
      0.708    22.3012   5.139680     2.2467     0.1560    83.9302        520    129.750 5.6918e+02 0.0000e+00
      0.709    22.3014   5.139681     2.2649     0.1546    83.9481        521    130.000 9.3698e+02 0.0000e+00
      0.708    22.3016   5.139680     2.2760     0.1551    83.8829        522    130.250 1.6212e+03 0.0000e+00
      0.707    22.3017   5.139683     2.2828     0.1702    83.8763        523    130.500 1.2065e+03 0.0000e+00
      0.704    22.3017   5.139688     2.2860     0.1688    83.8861        524    130.750 1.1046e+03 0.0000e+00
      0.702    22.3015   5.139691     2.2898     0.1679    83.8665        525    131.000 7.9886e+02 0.0000e+00
      0.701    22.3012   5.139690     2.2930     0.1679    83.9694        526    131.250 1.4395e+03 0.0000e+00
      0.703    22.3010   5.139688     2.2933     0.2055    83.9645        527    131.500 4.9165e+02 0.0000e+00
      0.706    22.3008   5.139692     2.2856     0.2082    83.9579        528    131.750 1.6705e+03 0.0000e+00
      0.709    22.3007   5.139702     2.2763     0.2050    83.9498        529    132.000 1.5370e+03 0.0000e+00
      0.712    22.3007   5.139712     2.2642     0.2045    83.9481        530    132.250 1.8889e+03 0.0000e+00
      0.712    22.3008   5.139718     2.2530     0.2050    83.9302        531    132.500 8.6248e+02 0.0000e+00
      0.711    22.3009   5.139723     2.2416     0.1835    83.8094        532    132.750 1.0550e+03 0.0000e+00
      0.709    22.3008   5.139726     2.2331     0.1835    83.8208        533    133.000 1.3598e+03 0.0000e+00
      0.707    22.3007   5.139723     2.2292     0.1826    83.8290        534    133.250 7.3149e+02 0.0000e+00
      0.705    22.3005   5.139716     2.2277     0.1839    83.8078        535    133.500 5.9107e+02 0.0000e+00
      0.705    22.3004   5.139710     2.2261     0.2059    83.9302        536    133.750 9.8807e+02 0.0000e+00
      0.705    22.3002   5.139705     2.2217     0.2059    83.9367        537    134.000 1.2713e+03 0.0000e+00
      0.707    22.3001   5.139703     2.2135     0.2055    83.9367        538    134.250 1.0755e+03 0.0000e+00
      0.708    22.3001   5.139706     2.2042     0.2032    83.9220        539    134.500 1.0476e+03 0.0000e+00
      0.709    22.3001   5.139718     2.1940     0.2055    83.9237        540    134.750 6.7504e+02 0.0000e+00
      0.708    22.3003   5.139734     2.1875     0.1894    83.9204        541    135.000 1.5881e+03 0.0000e+00
      0.707    22.3004   5.139743     2.1849     0.1913    83.9383        542    135.250 7.9808e+02 0.0000e+00
      0.707    22.3005   5.139741     2.1889     0.1904    83.9383        543    135.500 1.2357e+03 0.0000e+00
      0.708    22.3006   5.139738     2.1984     0.1913    83.9579        544    135.750 1.4173e+03 0.0000e+00
      0.710    22.3008   5.139741     2.2135     0.1780    83.9383        545    136.000 1.6527e+03 0.0000e+00
      0.712    22.3011   5.139748     2.2271     0.1730    83.7164        546    136.250 5.5887e+02 0.0000e+00
      0.713    22.3015   5.139757     2.2374     0.1748    83.7327        547    136.500 1.0738e+03 0.0000e+00
      0.713    22.3018   5.139763     2.2465     0.1748    83.7360        548    136.750 1.1302e+03 0.0000e+00
      0.712    22.3020   5.139763     2.2538     0.1904    83.9579        549    137.000 9.2019e+02 0.0000e+00
      0.711    22.3020   5.139757     2.2608     0.1871    83.9759        550    137.250 2.1042e+03 0.0000e+00
      0.710    22.3019   5.139747     2.2676     0.1885    83.9694        551    137.500 1.1886e+03 0.0000e+00
      0.710    22.3017   5.139738     2.2714     0.1899    83.8845        552    137.750 9.3607e+02 0.0000e+00
      0.711    22.3015   5.139735     2.2717     0.1913    83.8747        553    138.000 1.0917e+03 0.0000e+00
      0.711    22.3014   5.139731     2.2697     0.1821    83.8845        554    138.250 9.4522e+02 0.0000e+00
      0.712    22.3013   5.139725     2.2619     0.1844    83.8780        555    138.500 1.2434e+03 0.0000e+00
      0.712    22.3013   5.139728     2.2525     0.1821    83.7931        556    138.750 1.0960e+03 0.0000e+00
      0.711    22.3013   5.139743     2.2420     0.1835    83.7996        557    139.000 2.2031e+03 0.0000e+00
      0.709    22.3013   5.139765     2.2291     0.1611    83.7866        558    139.250 1.3365e+03 0.0000e+00
      0.707    22.3012   5.139780     2.2154     0.1606    83.7751        559    139.500 1.0858e+03 0.0000e+00
      0.707    22.3010   5.139780     2.2025     0.1624    83.7800        560    139.750 1.8956e+03 0.0000e+00
      0.707    22.3008   5.139773     2.1954     0.1624    83.7817        561    140.000 8.6922e+02 0.0000e+00
      0.709    22.3007   5.139774     2.1901     0.1707    83.7719        562    140.250 9.1590e+02 0.0000e+00
      0.711    22.3007   5.139783     2.1905     0.1707    84.0200        563    140.500 1.8634e+03 0.0000e+00
      0.713    22.3007   5.139797     2.1933     0.1679    84.0118        564    140.750 1.2200e+03 0.0000e+00
      0.714    22.3009   5.139809     2.1966     0.1670    84.0151        565    141.000 2.0673e+03 0.0000e+00
      0.715    22.3011   5.139816     2.2007     0.1679    83.9775        566    141.250 7.1504e+02 0.0000e+00
      0.715    22.3013   5.139823     2.2026     0.1913    83.9694        567    141.500 5.7207e+02 0.0000e+00
      0.715    22.3014   5.139835     2.2014     0.1904    83.9743        568    141.750 1.0462e+03 0.0000e+00
      0.714    22.3014   5.139850     2.1967     0.1899    84.1048        569    142.000 1.4940e+03 0.0000e+00
      0.713    22.3013   5.139858     2.1873     0.1913    84.1163        570    142.250 1.0676e+03 0.0000e+00
      0.712    22.3011   5.139853     2.1754     0.1894    84.1358        571    142.500 1.6466e+03 0.0000e+00
      0.712    22.3010   5.139836     2.1608     0.1936    84.1163        572    142.750 7.1992e+02 0.0000e+00
      0.714    22.3008   5.139818     2.1499     0.1917    83.9139        573    143.000 1.3630e+03 0.0000e+00
      0.716    22.3006   5.139809     2.1379     0.1885    83.9171        574    143.250 4.5760e+02 0.0000e+00
      0.717    22.3005   5.139811     2.1306     0.1826    83.9041        575    143.500 1.2539e+03 0.0000e+00
      0.717    22.3005   5.139824     2.1256     0.1858    83.9237        576    143.750 2.6131e+02 0.0000e+00
      0.715    22.3004   5.139838     2.1214     0.1826    83.9171        577    144.000 8.2267e+02 0.0000e+00
      0.713    22.3003   5.139843     2.1186     0.1826    83.9139        578    144.250 8.8957e+02 0.0000e+00
      0.712    22.3002   5.139836     2.1182     0.1835    84.0249        579    144.500 9.1572e+02 0.0000e+00
      0.712    22.3001   5.139821     2.1173     0.1688    84.0183        580    144.750 1.3474e+03 0.0000e+00
      0.714    22.3001   5.139807     2.1161     0.1679    84.0200        581    145.000 7.8898e+02 0.0000e+00
      0.716    22.3001   5.139803     2.1236     0.1698    84.0428        582    145.250 1.4421e+03 0.0000e+00
      0.717    22.3001   5.139813     2.1308     0.1679    83.8225        583    145.500 7.3334e+02 0.0000e+00
      0.716    22.3002   5.139833     2.1396     0.1785    83.8355        584    145.750 5.6587e+02 0.0000e+00
      0.715    22.3003   5.139855     2.1466     0.1752    83.8192        585    146.000 3.8004e+02 0.0000e+00
      0.713    22.3003   5.139867     2.1493     0.1762    83.8975        586    146.250 1.9219e+03 0.0000e+00
      0.711    22.3002   5.139864     2.1511     0.1766    83.8877        587    146.500 9.2737e+02 0.0000e+00
      0.711    22.3002   5.139855     2.1521     0.1771    83.8861        588    146.750 4.2550e+02 0.0000e+00
      0.711    22.3002   5.139846     2.1524     0.1766    83.8747        589    147.000 4.5804e+02 0.0000e+00
      0.711    22.3003   5.139843     2.1508     0.1757    83.9302        590    147.250 8.7600e+02 0.0000e+00
      0.711    22.3004   5.139847     2.1519     0.1794    83.9416        591    147.500 1.2449e+03 0.0000e+00
      0.710    22.3004   5.139857     2.1504     0.1780    83.9351        592    147.750 1.1609e+03 0.0000e+00
      0.709    22.3005   5.139866     2.1474     0.1894    83.8535        593    148.000 2.7574e+03 0.0000e+00
      0.706    22.3005   5.139869     2.1409     0.1926    83.8567        594    148.250 2.0009e+03 0.0000e+00
      0.703    22.3005   5.139868     2.1321     0.1913    83.8567        595    148.500 1.5121e+03 0.0000e+00
      0.700    22.3004   5.139870     2.1224     0.1894    83.9220        596    148.750 1.3482e+03 0.0000e+00
      0.697    22.3004   5.139875     2.1099     0.1757    83.9122        597    149.000 1.2529e+03 0.0000e+00
      0.695    22.3004   5.139873     2.0970     0.1785    83.9122        598    149.250 1.0877e+03 0.0000e+00
      0.694    22.3003   5.139861     2.0853     0.1748    83.9090        599    149.500 1.1412e+03 0.0000e+00
      0.695    22.3003   5.139848     2.0735     0.1739    83.9073        600    149.750 1.6456e+03 0.0000e+00
      0.697    22.3003   5.139846     2.0664     0.1730    83.9090        601    150.000 7.7093e+02 0.0000e+00
      0.697    22.3004   5.139859     2.0607     0.1844    83.9057        602    150.250 8.9512e+02 0.0000e+00
      0.696    22.3005   5.139880     2.0600     0.1807    83.8306        603    150.500 1.1132e+03 0.0000e+00
      0.695    22.3006   5.139901     2.0630     0.1826    83.8290        604    150.750 1.0843e+03 0.0000e+00
      0.694    22.3007   5.139911     2.0659     0.1844    83.8502        605    151.000 2.0083e+03 0.0000e+00
      0.694    22.3008   5.139904     2.0730     0.1533    83.9661        606    151.250 8.4439e+02 0.0000e+00
      0.695    22.3009   5.139888     2.0854     0.1533    83.9645        607    151.500 8.3055e+02 0.0000e+00
      0.698    22.3009   5.139879     2.1028     0.1542    83.9628        608    151.750 1.3089e+03 0.0000e+00
      0.700    22.3010   5.139888     2.1216     0.1565    83.9661        609    152.000 1.6428e+03 0.0000e+00
      0.701    22.3012   5.139914     2.1439     0.0842    83.9090        610    152.250 4.5388e+02 0.0000e+00
      0.699    22.3013   5.139941     2.1636     0.0855    83.9073        611    152.500 1.8809e+03 0.0000e+00
      0.697    22.3015   5.139955     2.1762     0.0842    83.9171        612    152.750 1.3313e+03 0.0000e+00
      0.696    22.3016   5.139957     2.1913     0.0828    83.9269        613    153.000 1.5575e+03 0.0000e+00
      0.697    22.3018   5.139961     2.2178     0.0878    83.9155        614    153.250 1.5630e+03 0.0000e+00
      0.699    22.3019   5.139974     2.2477     0.1107    83.9220        615    153.500 1.3752e+03 0.0000e+00
      0.701    22.3020   5.139991     2.2714     0.1098    83.7898        616    153.750 1.5542e+03 0.0000e+00
      0.701    22.3022   5.140004     2.2898     0.1116    83.7768        617    154.000 9.6904e+02 0.0000e+00
      0.699    22.3022   5.140011     2.3059     0.1116    83.7751        618    154.250 1.2696e+03 0.0000e+00
      0.696    22.3022   5.140011     2.3204     0.1913    83.7866        619    154.500 1.8758e+03 0.0000e+00
      0.694    22.3021   5.140006     2.3264     0.1913    83.9808        620    154.750 1.7452e+03 0.0000e+00
      0.693    22.3021   5.139999     2.3300     0.1894    83.9661        621    155.000 1.3156e+03 0.0000e+00
      0.694    22.3020   5.139996     2.3335     0.1913    83.9792        622    155.250 8.2011e+02 0.0000e+00
      0.696    22.3020   5.139999     2.3352     0.1972    83.8404        623    155.500 6.4613e+02 0.0000e+00
      0.698    22.3020   5.140003     2.3389     0.1968    83.8453        624    155.750 7.4051e+02 0.0000e+00
      0.699    22.3020   5.140005     2.3372     0.1991    83.8518        625    156.000 9.0229e+02 0.0000e+00
      0.697    22.3020   5.140000     2.3342     0.2023    83.8404        626    156.250 1.3995e+03 0.0000e+00
      0.693    22.3019   5.139988     2.3268     0.1968    83.8208        627    156.500 8.8594e+02 0.0000e+00
      0.688    22.3018   5.139976     2.3173     0.1931    83.8208        628    156.750 1.3128e+03 0.0000e+00
      0.686    22.3017   5.139970     2.3107     0.1899    83.8241        629    157.000 8.4669e+02 0.0000e+00
      0.686    22.3017   5.139968     2.3075     0.1885    83.8845        630    157.250 1.7670e+03 0.0000e+00
      0.688    22.3018   5.139967     2.3082     0.1858    83.8763        631    157.500 9.2198e+02 0.0000e+00
      0.691    22.3018   5.139967     2.3136     0.1899    83.8796        632    157.750 1.2269e+03 0.0000e+00
      0.692    22.3019   5.139964     2.3199     0.1908    83.8502        633    158.000 8.6652e+02 0.0000e+00
      0.691    22.3020   5.139960     2.3213     0.1913    83.8551        634    158.250 9.9734e+02 0.0000e+00
      0.689    22.3020   5.139952     2.3205     0.1904    83.8323        635    158.500 1.0637e+03 0.0000e+00
      0.686    22.3020   5.139942     2.3189     0.1867    83.8584        636    158.750 3.9642e+02 0.0000e+00
      0.683    22.3020   5.139936     2.3156     0.1844    83.7882        637    159.000 7.4949e+02 0.0000e+00
      0.683    22.3021   5.139933     2.3124     0.1844    83.7931        638    159.250 1.0375e+03 0.0000e+00
      0.684    22.3021   5.139930     2.3053     0.1844    83.8143        639    159.500 8.5181e+02 0.0000e+00
      0.686    22.3021   5.139929     2.2957     0.1849    83.8714        640    159.750 9.6678e+02 0.0000e+00
      0.689    22.3021   5.139929     2.2824     0.1798    83.8714        641    160.000 1.0881e+03 0.0000e+00
      0.691    22.3021   5.139928     2.2703     0.1826    83.8600        642    160.250 4.3826e+02 0.0000e+00
      0.690    22.3021   5.139925     2.2562     0.1817    83.8453        643    160.500 1.2091e+03 0.0000e+00
      0.688    22.3021   5.139918     2.2412     0.1858    83.8584        644    160.750 1.6396e+03 0.0000e+00
      0.685    22.3021   5.139906     2.2296     0.1762    83.8502        645    161.000 1.0333e+03 0.0000e+00
      0.683    22.3021   5.139892     2.2227     0.1780    83.8633        646    161.250 1.3670e+03 0.0000e+00
      0.683    22.3021   5.139879     2.2207     0.1757    83.8780        647    161.500 8.7686e+02 0.0000e+00
      0.685    22.3021   5.139868     2.2174     0.1766    83.8665        648    161.750 1.0281e+03 0.0000e+00
      0.687    22.3021   5.139855     2.2147     0.1583    83.8633        649    162.000 9.0001e+02 0.0000e+00
      0.688    22.3021   5.139842     2.2152     0.1336    83.7343        650    162.250 9.8023e+02 0.0000e+00
      0.688    22.3021   5.139827     2.2196     0.1359    83.7376        651    162.500 1.3784e+03 0.0000e+00
      0.689    22.3021   5.139814     2.2320     0.1299    83.7196        652    162.750 1.2788e+03 0.0000e+00
      0.690    22.3021   5.139805     2.2481     0.1313    83.7164        653    163.000 1.4888e+03 0.0000e+00
      0.691    22.3021   5.139794     2.2643     0.1331    83.7278        654    163.250 9.5501e+02 0.0000e+00
      0.691    22.3021   5.139777     2.2785     0.1331    83.7245        655    163.500 1.3115e+03 0.0000e+00
      0.690    22.3021   5.139750     2.2861     0.1313    83.7506        656    163.750 8.9547e+02 0.0000e+00
      0.688    22.3022   5.139720     2.2903     0.1345    83.7800        657    164.000 5.3401e+02 0.0000e+00
      0.687    22.3022   5.139700     2.2883     0.1551    83.7963        658    164.250 6.1871e+02 0.0000e+00
      0.687    22.3022   5.139690     2.2833     0.1546    83.7931        659    164.500 6.9313e+02 0.0000e+00
      0.689    22.3023   5.139684     2.2775     0.1533    83.8012        660    164.750 6.8883e+02 0.0000e+00
      0.692    22.3023   5.139667     2.2741     0.1560    83.8045        661    165.000 1.1732e+03 0.0000e+00
      0.694    22.3024   5.139629     2.2741     0.1514    83.7931        662    165.250 1.5621e+03 0.0000e+00
      0.695    22.3024   5.139561     2.2720     0.1414    83.7866        663    165.500 9.3771e+02 0.0000e+00
      0.693    22.3025   5.139463     2.2702     0.1382    83.8437        664    165.750 9.5501e+02 0.0000e+00
      0.690    22.3025   5.139369     2.2628     0.1418    83.8502        665    166.000 1.5263e+03 0.0000e+00
      0.689    22.3025   5.139333     2.2628     0.1400    83.8388        666    166.250 1.2895e+03 0.0000e+00
      0.690    22.3026   5.139353     2.2650     0.1771    83.7931        667    166.500 9.7946e+02 0.0000e+00
      0.693    22.3027   5.139362     2.2705     0.1762    83.7980        668    166.750 1.1955e+03 0.0000e+00
      0.697    22.3028   5.139313     2.2792     0.1757    83.8045        669    167.000 1.0424e+03 0.0000e+00
      0.700    22.3028   5.139209     2.2870     0.1762    83.6217        670    167.250 9.9134e+02 0.0000e+00
      0.701    22.3029   5.139095     2.2910     0.1194    83.6266        671    167.500 5.9038e+02 0.0000e+00
      0.701    22.3029   5.139034     2.2911     0.1185    83.6250        672    167.750 1.0831e+03 0.0000e+00
      0.700    22.3030   5.139047     2.2912     0.1185    83.6168        673    168.000 5.4217e+02 0.0000e+00
      0.700    22.3030   5.139096     2.2885     0.1180    83.7131        674    168.250 9.5445e+02 0.0000e+00
      0.701    22.3030   5.139131     2.2824     0.1162    83.7066        675    168.500 1.2021e+03 0.0000e+00
      0.701    22.3030   5.139138     2.2782     0.1551    83.7082        676    168.750 1.1636e+03 0.0000e+00
      0.701    22.3030   5.139140     2.2731     0.1565    83.8404        677    169.000 5.7185e+02 0.0000e+00
      0.701    22.3031   5.139154     2.2684     0.1560    83.8437        678    169.250 1.1435e+03 0.0000e+00
      0.701    22.3031   5.139175     2.2628     0.1551    83.8404        679    169.500 5.4175e+02 0.0000e+00
      0.701    22.3031   5.139187     2.2554     0.1473    83.8290        680    169.750 1.1764e+03 0.0000e+00
      0.701    22.3032   5.139190     2.2456     0.1473    83.8518        681    170.000 1.6894e+03 0.0000e+00
      0.701    22.3032   5.139197     2.2340     0.1478    83.8731        682    170.250 5.0189e+02 0.0000e+00
      0.701    22.3033   5.139217     2.2206     0.1487    83.8616        683    170.500 7.6883e+02 0.0000e+00
      0.701    22.3033   5.139243     2.2071     0.1469    83.8910        684    170.750 6.3579e+02 0.0000e+00
      0.702    22.3033   5.139262     2.1942     0.1473    83.8910        685    171.000 1.0509e+03 0.0000e+00
      0.703    22.3033   5.139263     2.1840     0.1473    83.8926        686    171.250 1.0601e+03 0.0000e+00
      0.702    22.3033   5.139247     2.1771     0.1492    83.7572        687    171.500 1.4376e+03 0.0000e+00
      0.701    22.3033   5.139225     2.1712     0.1432    83.7588        688    171.750 1.0690e+03 0.0000e+00
      0.700    22.3034   5.139211     2.1657     0.1478    83.7653        689    172.000 1.1789e+03 0.0000e+00
      0.699    22.3034   5.139213     2.1585     0.1464    83.7409        690    172.250 1.2374e+03 0.0000e+00
      0.699    22.3034   5.139224     2.1529     0.1469    83.7996        691    172.500 1.2098e+03 0.0000e+00
      0.700    22.3035   5.139224     2.1443     0.1473    83.7915        692    172.750 5.6203e+02 0.0000e+00
      0.700    22.3035   5.139201     2.1341     0.1771    83.7833        693    173.000 1.1125e+03 0.0000e+00
      0.701    22.3035   5.139171     2.1248     0.1752    83.8176        694    173.250 1.2568e+03 0.0000e+00
      0.701    22.3035   5.139155     2.1141     0.1762    83.8127        695    173.500 1.0175e+03 0.0000e+00
      0.701    22.3035   5.139162     2.1044     0.1766    83.8159        696    173.750 1.2164e+03 0.0000e+00
      0.702    22.3035   5.139171     2.0921     0.1340    83.8502        697    174.000 1.0599e+03 0.0000e+00
      0.703    22.3036   5.139161     2.0857     0.1331    83.8388        698    174.250 8.5082e+02 0.0000e+00
      0.703    22.3036   5.139128     2.0890     0.1313    83.8388        699    174.500 1.2637e+03 0.0000e+00
      0.702    22.3036   5.139090     2.0976     0.1322    83.8469        700    174.750 1.3919e+03 0.0000e+00
      0.701    22.3037   5.139066     2.1048     0.1327    83.9759        701    175.000 1.2242e+03 0.0000e+00
      0.699    22.3037   5.139066     2.1099     0.1611    83.9694        702    175.250 1.6064e+03 0.0000e+00
      0.698    22.3038   5.139086     2.1109     0.1615    83.9743        703    175.500 9.6697e+02 0.0000e+00
      0.699    22.3038   5.139116     2.1091     0.1624    83.8290        704    175.750 1.2917e+03 0.0000e+00
      0.701    22.3038   5.139143     2.1076     0.1592    83.8225        705    176.000 1.0295e+03 0.0000e+00
      0.702    22.3039   5.139156     2.1088     0.1885    83.8176        706    176.250 1.5859e+03 0.0000e+00
      0.703    22.3039   5.139152     2.1138     0.1913    83.9253        707    176.500 1.0087e+03 0.0000e+00
      0.703    22.3039   5.139137     2.1207     0.1904    83.9335        708    176.750 7.8929e+02 0.0000e+00
      0.703    22.3039   5.139122     2.1276     0.1899    83.9286        709    177.000 2.5204e+03 0.0000e+00
      0.702    22.3039   5.139121     2.1302     0.1899    83.9367        710    177.250 1.2011e+03 0.0000e+00
      0.702    22.3039   5.139135     2.1287     0.2045    83.9171        711    177.500 1.0373e+03 0.0000e+00
      0.703    22.3039   5.139158     2.1234     0.2032    83.9220        712    177.750 1.2875e+03 0.0000e+00
      0.703    22.3039   5.139179     2.1183     0.2055    83.9220        713    178.000 1.1605e+03 0.0000e+00
      0.702    22.3038   5.139188     2.1139     0.2059    83.8600        714    178.250 8.2347e+02 0.0000e+00
      0.701    22.3038   5.139188     2.1134     0.1615    83.8747        715    178.500 9.5743e+02 0.0000e+00
      0.699    22.3037   5.139190     2.1150     0.1611    83.8747        716    178.750 1.1459e+03 0.0000e+00
      0.697    22.3037   5.139199     2.1144     0.1638    83.8420        717    179.000 8.6265e+02 0.0000e+00
      0.695    22.3036   5.139213     2.1109     0.1638    83.8698        718    179.250 1.8296e+03 0.0000e+00
      0.695    22.3035   5.139227     2.1072     0.2206    83.8780        719    179.500 1.2331e+03 0.0000e+00
      0.694    22.3035   5.139235     2.1066     0.2178    83.8714        720    179.750 1.9141e+03 0.0000e+00
      0.692    22.3036   5.139235     2.1107     0.2201    83.8045        721    180.000 1.2910e+03 0.0000e+00
      0.691    22.3036   5.139233     2.1146     0.2219    83.7963        722    180.250 1.0355e+03 0.0000e+00
      0.690    22.3037   5.139233     2.1176     0.2192    83.7915        723    180.500 1.2701e+03 0.0000e+00
      0.690    22.3037   5.139237     2.1180     0.1936    83.8290        724    180.750 1.0867e+03 0.0000e+00
      0.690    22.3037   5.139245     2.1151     0.1904    83.8323        725    181.000 1.4732e+03 0.0000e+00
      0.692    22.3037   5.139254     2.1122     0.1885    83.8306        726    181.250 1.2622e+03 0.0000e+00
      0.693    22.3038   5.139260     2.1074     0.1913    83.8225        727    181.500 8.8456e+02 0.0000e+00
      0.693    22.3039   5.139262     2.1019     0.1556    83.8763        728    181.750 1.2490e+03 0.0000e+00
      0.693    22.3040   5.139263     2.0964     0.1528    83.8649        729    182.000 8.0338e+02 0.0000e+00
      0.692    22.3040   5.139264     2.0896     0.1565    83.8747        730    182.250 1.1050e+03 0.0000e+00
      0.690    22.3041   5.139265     2.0809     0.1565    83.9645        731    182.500 1.5169e+03 0.0000e+00
      0.689    22.3042   5.139271     2.0742     0.1624    83.9824        732    182.750 1.3558e+03 0.0000e+00
      0.690    22.3042   5.139282     2.0664     0.1601    83.9775        733    183.000 9.8385e+02 0.0000e+00
      0.691    22.3042   5.139297     2.0612     0.1633    83.8633        734    183.250 1.2585e+03 0.0000e+00
      0.693    22.3042   5.139313     2.0547     0.1624    83.8665        735    183.500 1.6234e+03 0.0000e+00
      0.694    22.3042   5.139330     2.0478     0.1615    83.8633        736    183.750 8.9617e+02 0.0000e+00
      0.696    22.3043   5.139355     2.0413     0.1533    83.8600        737    184.000 9.8500e+02 0.0000e+00
      0.697    22.3043   5.139383     2.0349     0.1551    83.8372        738    184.250 1.3217e+03 0.0000e+00
      0.698    22.3043   5.139399     2.0291     0.1551    83.8437        739    184.500 5.1065e+02 0.0000e+00
      0.698    22.3042   5.139407     2.0259     0.1546    83.8372        740    184.750 8.0541e+02 0.0000e+00
      0.698    22.3042   5.139428     2.0230     0.1153    83.8127        741    185.000 8.2459e+02 0.0000e+00
      0.698    22.3041   5.139476     2.0195     0.1176    83.8176        742    185.250 9.5948e+02 0.0000e+00
      0.700    22.3040   5.139554     2.0160     0.1167    83.8045        743    185.500 1.2456e+03 0.0000e+00
      0.705    22.3038   5.139653     2.0169     0.1176    83.7996        744    185.750 1.7805e+03 0.0000e+00
      0.710    22.3035   5.139734     2.0202     0.1162    83.7409        745    186.000 1.2507e+03 0.0000e+00
      0.715    22.3032   5.139755     2.0289     0.1185    83.7343        746    186.250 1.0597e+03 0.0000e+00
      0.716    22.3029   5.139727     2.0401     0.1189    83.7376        747    186.500 1.2753e+03 0.0000e+00
      0.715    22.3027   5.139706     2.0501     0.1162    83.6772        748    186.750 1.0452e+03 0.0000e+00
      0.713    22.3027   5.139729     2.0684     0.1189    83.6707        749    187.000 1.0907e+03 0.0000e+00
      0.713    22.3027   5.139787     2.1006     0.1986    83.6772        750    187.250 1.5767e+03 0.0000e+00
      0.716    22.3026   5.139852     2.1398     0.1986    83.8306        751    187.500 5.3745e+02 0.0000e+00
      0.720    22.3023   5.139898     2.1740     0.1986    83.8208        752    187.750 4.8575e+02 0.0000e+00
      0.723    22.3020   5.139910     2.2049     0.2004    83.8306        753    188.000 7.6406e+02 0.0000e+00
      0.723    22.3016   5.139902     2.2387     0.1551    83.8176        754    188.250 9.4558e+02 0.0000e+00
      0.719    22.3014   5.139901     2.2733     0.1533    83.7425        755    188.500 1.2580e+03 0.0000e+00
      0.716    22.3013   5.139914     2.3027     0.1505    83.7409        756    188.750 9.9753e+02 0.0000e+00
      0.715    22.3013   5.139934     2.3285     0.1556    83.7409        757    189.000 6.0397e+02 0.0000e+00
      0.717    22.3012   5.139958     2.3497     0.2091    83.4715        758    189.250 8.1645e+02 0.0000e+00
      0.719    22.3010   5.139978     2.3638     0.2105    83.4552        759    189.500 1.9362e+03 0.0000e+00
      0.721    22.3006   5.139983     2.3688     0.2132    83.4683        760    189.750 1.0690e+03 0.0000e+00
      0.721    22.3004   5.139979     2.3677     0.2137    83.7278        761    190.000 1.8007e+03 0.0000e+00
      0.720    22.3002   5.139975     2.3624     0.2132    83.7229        762    190.250 1.0281e+03 0.0000e+00
      0.717    22.3002   5.139978     2.3490     0.1739    83.7196        763    190.500 9.9676e+02 0.0000e+00
      0.716    22.3003   5.139990     2.3369     0.1766    83.7213        764    190.750 1.2430e+03 0.0000e+00
      0.717    22.3005   5.140008     2.3244     0.1766    83.4846        765    191.000 8.6685e+02 0.0000e+00
      0.720    22.3007   5.140025     2.3175     0.1757    83.5042        766    191.250 1.3731e+03 0.0000e+00
      0.724    22.3007   5.140037     2.3167     0.1336    83.5058        767    191.500 1.2558e+03 0.0000e+00
      0.727    22.3007   5.140042     2.3162     0.1322    83.8094        768    191.750 1.2283e+03 0.0000e+00
      0.729    22.3007   5.140042     2.3151     0.1304    83.8208        769    192.000 3.9052e+02 0.0000e+00
      0.728    22.3006   5.140040     2.3097     0.1331    83.8078        770    192.250 6.8549e+02 0.0000e+00
      0.727    22.3006   5.140044     2.3026     0.1308    83.8388        771    192.500 1.0601e+03 0.0000e+00
      0.727    22.3007   5.140058     2.2963     0.1395    83.8323        772    192.750 1.9673e+03 0.0000e+00
      0.730    22.3007   5.140082     2.2930     0.1414    83.8306        773    193.000 1.1344e+03 0.0000e+00
      0.734    22.3008   5.140110     2.2907     0.1391    83.8306        774    193.250 7.0894e+02 0.0000e+00
      0.738    22.3007   5.140129     2.2929     0.1418    83.9041        775    193.500 1.0343e+03 0.0000e+00
      0.740    22.3007   5.140132     2.2934     0.1249    83.8910        776    193.750 4.3284e+02 0.0000e+00
      0.740    22.3008   5.140128     2.2935     0.1272    83.8943        777    194.000 8.5463e+02 0.0000e+00
      0.738    22.3009   5.140129     2.2936     0.1226    83.7996        778    194.250 1.1488e+03 0.0000e+00
      0.735    22.3010   5.140135     2.2914     0.1244    83.8045        779    194.500 5.1704e+02 0.0000e+00
      0.733    22.3013   5.140148     2.2867     0.1391    83.7996        780    194.750 9.1644e+02 0.0000e+00
      0.735    22.3015   5.140165     2.2842     0.1395    83.7898        781    195.000 7.5549e+02 0.0000e+00
      0.739    22.3016   5.140182     2.2867     0.1409    83.7621        782    195.250 1.4463e+03 0.0000e+00
      0.742    22.3017   5.140193     2.2905     0.1414    83.7719        783    195.500 8.4406e+02 0.0000e+00
      0.743    22.3017   5.140197     2.2908     0.1405    83.7686        784    195.750 8.7243e+02 0.0000e+00
      0.741    22.3018   5.140199     2.2881     0.1459    83.8518        785    196.000 6.0928e+02 0.0000e+00
      0.737    22.3018   5.140203     2.2808     0.1473    83.8453        786    196.250 1.1851e+03 0.0000e+00
      0.733    22.3019   5.140213     2.2710     0.1478    83.8437        787    196.500 9.9019e+02 0.0000e+00
      0.731    22.3020   5.140224     2.2656     0.1446    83.5793        788    196.750 7.8531e+02 0.0000e+00
      0.731    22.3021   5.140234     2.2606     0.2137    83.5711        789    197.000 6.9759e+02 0.0000e+00
      0.733    22.3021   5.140246     2.2564     0.2105    83.5809        790    197.250 1.4712e+03 0.0000e+00
      0.736    22.3022   5.140260     2.2543     0.2128    83.5776        791    197.500 1.0303e+03 0.0000e+00
      0.739    22.3022   5.140273     2.2498     0.2105    83.7441        792    197.750 5.9395e+02 0.0000e+00
      0.739    22.3022   5.140282     2.2421     0.1395    83.7376        793    198.000 1.2319e+03 0.0000e+00
      0.737    22.3023   5.140286     2.2320     0.1382    83.7392        794    198.250 9.6359e+02 0.0000e+00
      0.732    22.3023   5.140287     2.2238     0.1386    83.9481        795    198.500 8.3216e+02 0.0000e+00
      0.726    22.3024   5.140289     2.2242     0.1377    83.9416        796    198.750 1.5782e+03 0.0000e+00
      0.721    22.3025   5.140299     2.2322     0.1405    83.9465        797    199.000 9.3298e+02 0.0000e+00
      0.719    22.3026   5.140313     2.2438     0.1528    83.7441        798    199.250 1.1468e+03 0.0000e+00
      0.718    22.3027   5.140327     2.2537     0.1542    83.7474        799    199.500 5.7631e+02 0.0000e+00
      0.718    22.3028   5.140334     2.2585     0.1565    83.7409        800    199.750 1.1736e+03 0.0000e+00
      0.716    22.3029   5.140333     2.2661     0.1560    83.7409        801    200.000 1.3852e+03 0.0000e+00
      0.713    22.3030   5.140331     2.2759     0.1652    83.7882        802    200.250 1.2235e+03 0.0000e+00
      0.710    22.3030   5.140331     2.2881     0.1592    83.7849        803    200.500 2.0521e+03 0.0000e+00
      0.706    22.3031   5.140332     2.2993     0.1633    83.7931        804    200.750 1.0351e+03 0.0000e+00
      0.705    22.3031   5.140338     2.3078     0.1633    83.7866        805    201.000 1.0485e+03 0.0000e+00
      0.705    22.3031   5.140349     2.3092     0.1826    83.7866        806    201.250 7.7273e+02 0.0000e+00
      0.706    22.3031   5.140363     2.3033     0.1821    83.7800        807    201.500 2.5386e+03 0.0000e+00
      0.708    22.3031   5.140376     2.2949     0.1835    83.7735        808    201.750 1.0915e+03 0.0000e+00
      0.710    22.3032   5.140386     2.2830     0.1835    83.7213        809    202.000 1.0641e+03 0.0000e+00
      0.709    22.3032   5.140393     2.2728     0.1853    83.7164        810    202.250 9.6678e+02 0.0000e+00
      0.706    22.3033   5.140398     2.2612     0.1762    83.7327        811    202.500 1.1287e+03 0.0000e+00
      0.702    22.3033   5.140400     2.2487     0.1762    83.7506        812    202.750 1.0867e+03 0.0000e+00
      0.699    22.3033   5.140404     2.2423     0.1771    83.7506        813    203.000 1.4661e+03 0.0000e+00
      0.698    22.3033   5.140413     2.2386     0.1785    83.7474        814    203.250 1.2415e+03 0.0000e+00
      0.699    22.3033   5.140427     2.2358     0.1917    83.9857        815    203.500 4.1633e+02 0.0000e+00
      0.701    22.3033   5.140442     2.2352     0.1917    83.9938        816    203.750 7.1698e+02 0.0000e+00
      0.703    22.3034   5.140455     2.2368     0.1894    83.9824        817    204.000 7.8485e+02 0.0000e+00
      0.703    22.3034   5.140461     2.2375     0.1936    83.9710        818    204.250 7.6110e+02 0.0000e+00
      0.701    22.3035   5.140464     2.2390     0.1894    83.6919        819    204.500 1.4902e+03 0.0000e+00
      0.698    22.3035   5.140468     2.2368     0.1913    83.7082        820    204.750 1.0990e+03 0.0000e+00
      0.696    22.3036   5.140474     2.2327     0.1904    83.6886        821    205.000 9.2001e+02 0.0000e+00
      0.696    22.3036   5.140485     2.2383     0.1913    83.8959        822    205.250 1.1280e+03 0.0000e+00
      0.700    22.3036   5.140503     2.2527     0.1899    83.8992        823    205.500 2.1120e+03 0.0000e+00
      0.706    22.3036   5.140524     2.2741     0.1913    83.8910        824    205.750 1.6418e+03 0.0000e+00
      0.714    22.3036   5.140543     2.2906     0.1899    83.7963        825    206.000 1.1648e+03 0.0000e+00
      0.720    22.3035   5.140554     2.3033     0.1913    83.8094        826    206.250 1.0776e+03 0.0000e+00
      0.725    22.3035   5.140556     2.3186     0.1894    83.7963        827    206.500 7.9437e+02 0.0000e+00
      0.727    22.3034   5.140553     2.3343     0.2041    83.7915        828    206.750 1.6386e+03 0.0000e+00
      0.727    22.3034   5.140552     2.3438     0.2055    83.8127        829    207.000 1.5373e+03 0.0000e+00
      0.726    22.3034   5.140553     2.3486     0.2041    83.8208        830    207.250 9.2611e+02 0.0000e+00
      0.726    22.3035   5.140556     2.3436     0.2077    83.8192        831    207.500 9.3298e+02 0.0000e+00
      0.727    22.3035   5.140561     2.3402     0.2032    83.8665        832    207.750 8.7754e+02 0.0000e+00
      0.729    22.3036   5.140564     2.3357     0.1752    83.8714        833    208.000 1.1711e+03 0.0000e+00
      0.730    22.3037   5.140567     2.3288     0.1766    83.8714        834    208.250 1.4287e+03 0.0000e+00
      0.731    22.3037   5.140571     2.3220     0.1766    83.8910        835    208.500 1.1151e+03 0.0000e+00
      0.730    22.3038   5.140574     2.3115     0.1762    83.9808        836    208.750 4.5867e+02 0.0000e+00
      0.730    22.3039   5.140574     2.3006     0.1707    83.9808        837    209.000 5.4683e+02 0.0000e+00
      0.730    22.3040   5.140572     2.2914     0.1698    83.9792        838    209.250 7.1908e+02 0.0000e+00
      0.730    22.3040   5.140571     2.2844     0.1675    83.7702        839    209.500 6.1177e+02 0.0000e+00
      0.730    22.3041   5.140571     2.2726     0.1698    83.7751        840    209.750 6.2148e+02 0.0000e+00
      0.730    22.3041   5.140573     2.2599     0.1638    83.7784        841    210.000 5.6642e+02 0.0000e+00
      0.730    22.3042   5.140575     2.2453     0.1615    83.9286        842    210.250 1.0934e+03 0.0000e+00
      0.731    22.3042   5.140574     2.2302     0.1620    83.9269        843    210.500 9.8290e+02 0.0000e+00
      0.732    22.3042   5.140573     2.2146     0.1620    83.9220        844    210.750 1.5022e+03 0.0000e+00
      0.733    22.3043   5.140575     2.2013     0.1579    83.9171        845    211.000 1.1618e+03 0.0000e+00
      0.734    22.3043   5.140582     2.1877     0.1839    83.7670        846    211.250 9.6660e+02 0.0000e+00
      0.733    22.3043   5.140591     2.1776     0.1826    83.7572        847    211.500 1.8350e+03 0.0000e+00
      0.731    22.3043   5.140598     2.1716     0.1844    83.7621        848    211.750 1.0098e+03 0.0000e+00
      0.730    22.3043   5.140600     2.1662     0.1821    83.7441        849    212.000 1.0780e+03 0.0000e+00
      0.731    22.3042   5.140602     2.1620     0.1698    83.7523        850    212.250 3.5282e+02 0.0000e+00
      0.734    22.3041   5.140608     2.1637     0.1693    83.7441        851    212.500 1.6215e+03 0.0000e+00
      0.737    22.3039   5.140617     2.1695     0.1679    83.7882        852    212.750 1.0075e+03 0.0000e+00
      0.739    22.3037   5.140625     2.1799     0.1675    83.7833        853    213.000 6.5921e+02 0.0000e+00
      0.739    22.3036   5.140632     2.1981     0.1427    83.7931        854    213.250 6.8695e+02 0.0000e+00
      0.738    22.3036   5.140636     2.2249     0.1492    83.7866        855    213.500 9.1430e+02 0.0000e+00
      0.738    22.3036   5.140636     2.2478     0.1473    83.5972        856    213.750 1.2126e+03 0.0000e+00
      0.739    22.3037   5.140632     2.2654     0.1492    83.6038        857    214.000 8.4111e+02 0.0000e+00
      0.741    22.3038   5.140630     2.2780     0.1459    83.5972        858    214.250 7.3792e+02 0.0000e+00
      0.742    22.3039   5.140634     2.2866     0.1592    83.8306        859    214.500 1.2032e+03 0.0000e+00
      0.741    22.3039   5.140644     2.2900     0.1647    83.8323        860    214.750 1.0695e+03 0.0000e+00
      0.739    22.3040   5.140650     2.2884     0.1606    83.8388        861    215.000 5.5400e+02 0.0000e+00
      0.736    22.3040   5.140647     2.2831     0.1588    83.8241        862    215.250 9.4430e+02 0.0000e+00
      0.736    22.3040   5.140637     2.2805     0.1679    83.8208        863    215.500 1.1736e+03 0.0000e+00
      0.738    22.3040   5.140629     2.2776     0.1702    83.8257        864    215.750 9.3389e+02 0.0000e+00
      0.741    22.3039   5.140626     2.2753     0.1702    83.8127        865    216.000 1.3477e+03 0.0000e+00
      0.744    22.3038   5.140633     2.2733     0.1661    83.6625        866    216.250 1.1392e+03 0.0000e+00
      0.744    22.3037   5.140648     2.2761     0.1519    83.6739        867    216.500 2.3137e+03 0.0000e+00
      0.742    22.3035   5.140662     2.2753     0.1560    83.6837        868    216.750 9.7813e+02 0.0000e+00
      0.739    22.3034   5.140666     2.2695     0.1546    83.7653        869    217.000 1.3130e+03 0.0000e+00
      0.737    22.3034   5.140660     2.2656     0.1546    83.7539        870    217.250 1.3630e+03 0.0000e+00
      0.739    22.3034   5.140649     2.2649     0.1556    83.7539        871    217.500 5.4641e+02 0.0000e+00
      0.742    22.3033   5.140644     2.2702     0.1904    83.7506        872    217.750 7.7093e+02 0.0000e+00
      0.745    22.3031   5.140652     2.2789     0.1940    83.8502        873    218.000 9.4063e+02 0.0000e+00
      0.746    22.3029   5.140669     2.2901     0.1885    83.8437        874    218.250 1.3590e+03 0.0000e+00
      0.745    22.3028   5.140685     2.3037     0.1904    83.8420        875    218.500 1.1149e+03 0.0000e+00
      0.741    22.3028   5.140695     2.3172     0.1702    83.8241        876    218.750 9.0018e+02 0.0000e+00
      0.738    22.3029   5.140696     2.3261     0.1688    83.8143        877    219.000 6.1392e+02 0.0000e+00
      0.736    22.3030   5.140687     2.3354     0.1698    83.8110        878    219.250 8.0887e+02 0.0000e+00
      0.736    22.3031   5.140673     2.3478     0.1688    83.8877        879    219.500 1.1691e+03 0.0000e+00
      0.739    22.3031   5.140658     2.3550     0.1679    83.8877        880    219.750 8.4128e+02 0.0000e+00
      0.742    22.3030   5.140650     2.3613     0.1592    83.8943        881    220.000 7.5008e+02 0.0000e+00
      0.744    22.3029   5.140659     2.3600     0.1620    83.8877        882    220.250 1.2780e+03 0.0000e+00
      0.743    22.3027   5.140679     2.3529     0.1638    83.8045        883    220.500 9.7604e+02 0.0000e+00
      0.740    22.3026   5.140698     2.3440     0.1624    83.8029        884    220.750 1.2044e+03 0.0000e+00
      0.736    22.3026   5.140706     2.3341     0.1615    83.8012        885    221.000 1.2529e+03 0.0000e+00
      0.733    22.3027   5.140701     2.3291     0.1620    83.7588        886    221.250 1.2600e+03 0.0000e+00
      0.732    22.3028   5.140687     2.3258     0.1606    83.7800        887    221.500 1.4480e+03 0.0000e+00
      0.733    22.3029   5.140673     2.3245     0.1620    83.7555        888    221.750 1.3566e+03 0.0000e+00
      0.736    22.3029   5.140669     2.3205     0.1542    83.9171        889    222.000 1.2252e+03 0.0000e+00
      0.739    22.3029   5.140677     2.3186     0.1551    83.8926        890    222.250 1.3082e+03 0.0000e+00
      0.740    22.3028   5.140696     2.3131     0.1551    83.9204        891    222.500 1.2872e+03 0.0000e+00
      0.740    22.3027   5.140717     2.3043     0.1551    83.9237        892    222.750 1.5841e+03 0.0000e+00
      0.739    22.3027   5.140732     2.2940     0.1546    83.8453        893    223.000 1.6386e+03 0.0000e+00
      0.738    22.3027   5.140734     2.2814     0.1771    83.8420        894    223.250 1.1076e+03 0.0000e+00
      0.738    22.3028   5.140726     2.2708     0.1771    83.8437        895    223.500 1.4126e+03 0.0000e+00
      0.739    22.3029   5.140712     2.2620     0.1785    83.7474        896    223.750 1.2454e+03 0.0000e+00
      0.742    22.3030   5.140701     2.2573     0.1762    83.7539        897    224.000 1.1639e+03 0.0000e+00
      0.745    22.3030   5.140700     2.2552     0.1565    83.7474        898    224.250 1.5004e+03 0.0000e+00
      0.747    22.3030   5.140708     2.2548     0.1560    83.7409        899    224.500 7.9591e+02 0.0000e+00
      0.749    22.3029   5.140719     2.2548     0.1542    83.9171        900    224.750 1.0503e+03 0.0000e+00
      0.750    22.3028   5.140723     2.2516     0.1519    83.9090        901    225.000 1.3946e+03 0.0000e+00
      0.751    22.3028   5.140717     2.2470     0.1844    83.9057        902    225.250 1.1082e+03 0.0000e+00
      0.752    22.3027   5.140707     2.2438     0.1858    83.8551        903    225.500 9.7699e+02 0.0000e+00
      0.754    22.3027   5.140700     2.2419     0.1826    83.8502        904    225.750 1.4553e+03 0.0000e+00
      0.756    22.3026   5.140700     2.2412     0.1844    83.8469        905    226.000 9.9967e+02 0.0000e+00
      0.758    22.3026   5.140706     2.2383     0.1839    83.8943        906    226.250 5.7074e+02 0.0000e+00
      0.759    22.3026   5.140711     2.2319     0.1748    83.8877        907    226.500 6.3889e+02 0.0000e+00
      0.761    22.3025   5.140712     2.2233     0.1807    83.8812        908    226.750 8.2219e+02 0.0000e+00
      0.763    22.3024   5.140713     2.2119     0.1739    83.8714        909    227.000 8.8062e+02 0.0000e+00
      0.764    22.3023   5.140720     2.1991     0.1789    83.8502        910    227.250 1.3016e+03 0.0000e+00
      0.763    22.3023   5.140734     2.1880     0.1533    83.8502        911    227.500 6.1177e+02 0.0000e+00
      0.762    22.3022   5.140751     2.1754     0.1514    83.8518        912    227.750 1.1501e+03 0.0000e+00
      0.760    22.3022   5.140759     2.1640     0.1574    83.8061        913    228.000 5.6269e+02 0.0000e+00
      0.758    22.3023   5.140752     2.1513     0.1551    83.8159        914    228.250 3.5704e+02 0.0000e+00
      0.759    22.3024   5.140737     2.1398     0.1652    83.8208        915    228.500 7.0922e+02 0.0000e+00
      0.761    22.3024   5.140726     2.1311     0.1620    83.7229        916    228.750 1.1927e+03 0.0000e+00
      0.762    22.3025   5.140726     2.1285     0.1620    83.7343        917    229.000 1.2357e+03 0.0000e+00
      0.763    22.3025   5.140734     2.1356     0.1620    83.7376        918    229.250 5.0335e+02 0.0000e+00
      0.762    22.3025   5.140741     2.1454     0.1592    83.7278        919    229.500 4.9742e+02 0.0000e+00
      0.760    22.3025   5.140743     2.1563     0.1771    83.7866        920    229.750 8.6500e+02 0.0000e+00
      0.759    22.3026   5.140739     2.1700     0.1771    83.7898        921    230.000 7.3491e+02 0.0000e+00
      0.760    22.3026   5.140735     2.1874     0.1771    83.8045        922    230.250 1.4690e+03 0.0000e+00
      0.761    22.3025   5.140736     2.2031     0.1771    83.8453        923    230.500 7.8714e+02 0.0000e+00
      0.762    22.3024   5.140745     2.2121     0.1817    83.8469        924    230.750 1.1136e+03 0.0000e+00
      0.761    22.3024   5.140758     2.2160     0.1849    83.8518        925    231.000 8.7294e+02 0.0000e+00
      0.759    22.3023   5.140763     2.2239     0.1817    83.8208        926    231.250 9.3880e+02 0.0000e+00
      0.758    22.3023   5.140756     2.2302     0.1835    83.8078        927    231.500 6.7438e+02 0.0000e+00
      0.759    22.3023   5.140744     2.2393     0.1542    83.8225        928    231.750 1.4184e+03 0.0000e+00
      0.761    22.3022   5.140733     2.2494     0.1542    83.8225        929    232.000 1.0191e+03 0.0000e+00
      0.764    22.3022   5.140729     2.2593     0.1524    83.8567        930    232.250 9.2557e+02 0.0000e+00
      0.765    22.3021   5.140734     2.2681     0.1556    83.8469        931    232.500 1.6014e+03 0.0000e+00
      0.764    22.3020   5.140744     2.2717     0.1533    83.8600        932    232.750 1.3432e+03 0.0000e+00
      0.762    22.3020   5.140756     2.2694     0.1679    83.7490        933    233.000 1.7979e+03 0.0000e+00
      0.758    22.3019   5.140763     2.2633     0.1698    83.7409        934    233.250 6.5857e+02 0.0000e+00
      0.755    22.3020   5.140763     2.2544     0.1688    83.7425        935    233.500 1.2037e+03 0.0000e+00
      0.753    22.3021   5.140755     2.2424     0.1688    83.7311        936    233.750 1.0036e+03 0.0000e+00
      0.754    22.3022   5.140744     2.2320     0.1391    83.6984        937    234.000 1.1278e+03 0.0000e+00
      0.756    22.3023   5.140736     2.2266     0.1391    83.6952        938    234.250 1.3957e+03 0.0000e+00
      0.757    22.3023   5.140738     2.2254     0.1391    83.7017        939    234.500 7.9793e+02 0.0000e+00
      0.757    22.3023   5.140752     2.2302     0.1409    83.6919        940    234.750 2.0244e+03 0.0000e+00
      0.755    22.3023   5.140775     2.2371     0.1391    83.6886        941    235.000 5.8615e+02 0.0000e+00
      0.750    22.3023   5.140793     2.2416     0.1670    83.6854        942    235.250 1.2693e+03 0.0000e+00
      0.746    22.3024   5.140799     2.2450     0.1679    83.7572        943    235.500 1.3438e+03 0.0000e+00
      0.742    22.3025   5.140790     2.2536     0.1661    83.7555        944    235.750 6.5334e+02 0.0000e+00
      0.741    22.3027   5.140772     2.2654     0.1688    83.7588        945    236.000 1.4624e+03 0.0000e+00
      0.741    22.3027   5.140758     2.2762     0.1542    83.7604        946    236.250 2.3753e+03 0.0000e+00
      0.742    22.3027   5.140756     2.2820     0.1542    83.9090        947    236.500 1.3120e+03 0.0000e+00
      0.742    22.3026   5.140769     2.2836     0.1551    83.8992        948    236.750 1.4022e+03 0.0000e+00
      0.740    22.3026   5.140788     2.2824     0.1556    83.9024        949    237.000 1.7750e+03 0.0000e+00
      0.738    22.3025   5.140797     2.2766     0.1835    83.8437        950    237.250 2.2220e+03 0.0000e+00
      0.735    22.3025   5.140790     2.2705     0.1835    83.8453        951    237.500 1.4245e+03 0.0000e+00
      0.735    22.3026   5.140774     2.2716     0.1849    83.8486        952    237.750 4.5159e+02 0.0000e+00
      0.736    22.3026   5.140765     2.2776     0.1821    83.8143        953    238.000 1.1408e+03 0.0000e+00
      0.736    22.3025   5.140770     2.2911     0.1826    83.8012        954    238.250 1.1934e+03 0.0000e+00
      0.734    22.3025   5.140784     2.3073     0.1698    83.8159        955    238.500 1.0966e+03 0.0000e+00
      0.730    22.3024   5.140796     2.3322     0.1675    83.8029        956    238.750 9.0316e+02 0.0000e+00
      0.725    22.3025   5.140795     2.3580     0.1675    83.8257        957    239.000 1.2730e+03 0.0000e+00
      0.722    22.3026   5.140780     2.3788     0.1693    83.8323        958    239.250 5.9453e+02 0.0000e+00
      0.721    22.3027   5.140765     2.3987     0.2132    83.8290        959    239.500 6.9800e+02 0.0000e+00
      0.723    22.3028   5.140760     2.4125     0.2119    83.8910        960    239.750 1.5430e+03 0.0000e+00
      0.725    22.3027   5.140770     2.4215     0.2128    83.8943        961    240.000 7.2484e+02 0.0000e+00
      0.725    22.3026   5.140789     2.4222     0.2137    83.8992        962    240.250 8.8250e+02 0.0000e+00
      0.723    22.3026   5.140807     2.4205     0.1711    83.8861        963    240.500 1.0343e+03 0.0000e+00
      0.721    22.3026   5.140815     2.4177     0.1679    83.7882        964    240.750 7.3463e+02 0.0000e+00
      0.719    22.3026   5.140808     2.4111     0.1679    83.8045        965    241.000 9.7566e+02 0.0000e+00
      0.719    22.3027   5.140793     2.4031     0.1665    83.8012        966    241.250 9.0528e+02 0.0000e+00
      0.721    22.3028   5.140782     2.3935     0.1652    83.8029        967    241.500 7.0894e+02 0.0000e+00
      0.724    22.3028   5.140785     2.3845     0.2114    83.8029        968    241.750 9.4356e+02 0.0000e+00
      0.724    22.3027   5.140798     2.3761     0.2119    83.8061        969    242.000 7.5608e+02 0.0000e+00
      0.721    22.3027   5.140811     2.3700     0.2119    83.7539        970    242.250 1.0641e+03 0.0000e+00
      0.716    22.3027   5.140815     2.3628     0.2119    83.7686        971    242.500 9.4283e+02 0.0000e+00
      0.712    22.3028   5.140806     2.3564     0.1382    83.7621        972    242.750 1.6080e+03 0.0000e+00
      0.712    22.3028   5.140793     2.3593     0.1391    83.7506        973    243.000 1.5835e+03 0.0000e+00
      0.716    22.3029   5.140788     2.3725     0.1409    83.7898        974    243.250 4.6055e+02 0.0000e+00
      0.723    22.3028   5.140795     2.3862     0.1395    83.7751        975    243.500 8.4587e+02 0.0000e+00
      0.729    22.3027   5.140808     2.3977     0.1963    83.7800        976    243.750 1.0770e+03 0.0000e+00
      0.730    22.3026   5.140823     2.4140     0.2004    83.8567        977    244.000 1.0426e+03 0.0000e+00
      0.727    22.3026   5.140831     2.4349     0.1963    83.8404        978    244.250 1.6708e+03 0.0000e+00
      0.722    22.3026   5.140828     2.4500     0.1972    83.8437        979    244.500 5.6775e+02 0.0000e+00
      0.718    22.3027   5.140819     2.4591     0.1968    82.9884        980    244.750 1.2558e+03 0.0000e+00
      0.717    22.3028   5.140809     2.4639     0.0970    82.9884        981    245.000 1.8003e+03 0.0000e+00
      0.718    22.3028   5.140805     2.4635     0.0974    82.9721        982    245.250 9.5390e+02 0.0000e+00
      0.721    22.3028   5.140806     2.4578     0.0983    82.9835        983    245.500 7.6184e+02 0.0000e+00
      0.724    22.3028   5.140814     2.4494     0.0983    83.3540        984    245.750 1.0006e+03 0.0000e+00
      0.724    22.3028   5.140830     2.4372     0.1446    83.3442        985    246.000 4.5769e+02 0.0000e+00
      0.721    22.3028   5.140844     2.4282     0.1469    83.3491        986    246.250 8.5297e+02 0.0000e+00
      0.718    22.3028   5.140847     2.4207     0.1478    83.7963        987    246.500 1.3143e+03 0.0000e+00
      0.714    22.3028   5.140842     2.4137     0.1473    83.7963        988    246.750 1.1830e+03 0.0000e+00
      0.713    22.3029   5.140838     2.4066     0.1446    83.7963        989    247.000 1.2235e+03 0.0000e+00
      0.712    22.3029   5.140840     2.4031     0.1121    83.3622        990    247.250 6.7412e+02 0.0000e+00
      0.712    22.3029   5.140846     2.3985     0.1107    83.3638        991    247.500 1.0253e+03 0.0000e+00
      0.711    22.3028   5.140853     2.3905     0.1107    83.3638        992    247.750 1.0426e+03 0.0000e+00
      0.709    22.3028   5.140857     2.3777     0.1102    83.3524        993    248.000 1.5051e+03 0.0000e+00
      0.707    22.3028   5.140858     2.3596     0.1542    83.8290        994    248.250 1.2693e+03 0.0000e+00
      0.706    22.3028   5.140854     2.3396     0.1542    83.8339        995    248.500 1.3223e+03 0.0000e+00
      0.706    22.3028   5.140844     2.3175     0.1524    83.8404        996    248.750 1.2432e+03 0.0000e+00
      0.708    22.3027   5.140833     2.2970     0.1551    83.7098        997    249.000 7.1378e+02 0.0000e+00
      0.710    22.3027   5.140828     2.2801     0.1579    83.7049        998    249.250 8.5696e+02 0.0000e+00
      0.712    22.3027   5.140831     2.2667     0.1546    83.7082        999    249.500 9.9909e+02 0.0000e+00
      0.712    22.3027   5.140840     2.2582     0.1533    83.6968       1000    249.750 1.0634e+03 0.0000e+00
      0.710    22.3027   5.140851     2.2519     0.1551    83.9008       1001    250.000 1.6418e+03 0.0000e+00
      0.708    22.3027   5.140856     2.2443     0.1542    83.8747       1002    250.250 9.5353e+02 0.0000e+00
      0.707    22.3028   5.140853     2.2361     0.1693    83.8877       1003    250.500 3.2213e+02 0.0000e+00
      0.708    22.3028   5.140846     2.2271     0.1702    83.8714       1004    250.750 9.4595e+02 0.0000e+00
      0.711    22.3029   5.140843     2.2190     0.1675    83.8698       1005    251.000 8.5497e+02 0.0000e+00
      0.714    22.3029   5.140847     2.2072     0.1679    83.8747       1006    251.250 1.0903e+03 0.0000e+00
      0.716    22.3030   5.140858     2.1982     0.1766    83.8208       1007    251.500 4.2749e+02 0.0000e+00
      0.716    22.3031   5.140873     2.1901     0.1739    83.8306       1008    251.750 1.8934e+03 0.0000e+00
      0.714    22.3032   5.140885     2.1836     0.1734    83.8274       1009    252.000 3.9465e+02 0.0000e+00
      0.712    22.3033   5.140892     2.1759     0.1771    83.8225       1010    252.250 1.3938e+03 0.0000e+00
      0.710    22.3034   5.140894     2.1743     0.1542    83.8388       1011    252.500 8.0354e+02 0.0000e+00
      0.711    22.3035   5.140895     2.1857     0.1556    83.8274       1012    252.750 3.8285e+02 0.0000e+00
      0.713    22.3035   5.140900     2.2066     0.1542    83.8176       1013    253.000 8.2395e+02 0.0000e+00
      0.715    22.3036   5.140910     2.2310     0.1551    83.8061       1014    253.250 1.1844e+03 0.0000e+00
      0.716    22.3037   5.140920     2.2521     0.1546    83.8094       1015    253.500 9.6359e+02 0.0000e+00
      0.715    22.3039   5.140930     2.2695     0.1771    83.8110       1016    253.750 3.7243e+02 0.0000e+00
      0.714    22.3040   5.140936     2.2824     0.1757    83.8437       1017    254.000 4.5238e+02 0.0000e+00
      0.712    22.3040   5.140935     2.2888     0.1780    83.8567       1018    254.250 1.2112e+03 0.0000e+00
      0.712    22.3040   5.140930     2.2898     0.1780    83.8372       1019    254.500 9.6678e+02 0.0000e+00
      0.714    22.3040   5.140926     2.2878     0.1414    83.8388       1020    254.750 2.4823e+02 0.0000e+00
      0.717    22.3040   5.140927     2.2841     0.1373    83.8339       1021    255.000 4.3125e+02 0.0000e+00
      0.719    22.3041   5.140931     2.2802     0.1391    83.8388       1022    255.250 5.5196e+02 0.0000e+00
      0.721    22.3043   5.140935     2.2774     0.1386    83.8453       1023    255.500 9.0898e+02 0.0000e+00
      0.721    22.3044   5.140938     2.2696     0.1487    83.8208       1024    255.750 9.8634e+02 0.0000e+00
      0.721    22.3044   5.140938     2.2621     0.1505    83.8257       1025    256.000 5.3132e+02 0.0000e+00
      0.721    22.3045   5.140936     2.2528     0.1478    83.8159       1026    256.250 8.2539e+02 0.0000e+00
      0.723    22.3046   5.140937     2.2422     0.1469    83.8110       1027    256.500 5.1005e+02 0.0000e+00
      0.725    22.3046   5.140939     2.2322     0.1492    83.8665       1028    256.750 9.9000e+02 0.0000e+00
      0.729    22.3047   5.140944     2.2225     0.1766    83.8780       1029    257.000 8.8388e+02 0.0000e+00
      0.732    22.3047   5.140949     2.2075     0.1766    83.8780       1030    257.250 6.0845e+02 0.0000e+00
      0.735    22.3048   5.140952     2.1949     0.1789    83.7817       1031    257.500 1.8311e+03 0.0000e+00
      0.738    22.3049   5.140955     2.1847     0.1771    83.7768       1032    257.750 1.1923e+03 0.0000e+00
      0.740    22.3050   5.140957     2.1752     0.1698    83.7817       1033    258.000 1.1721e+03 0.0000e+00
      0.741    22.3051   5.140959     2.1666     0.1702    83.9171       1034    258.250 2.8388e+02 0.0000e+00
      0.741    22.3052   5.140961     2.1557     0.1679    83.9139       1035    258.500 8.4538e+02 0.0000e+00
      0.740    22.3053   5.140961     2.1445     0.1693    83.9122       1036    258.750 7.5447e+02 0.0000e+00
      0.739    22.3053   5.140959     2.1315     0.1835    83.8926       1037    259.000 1.8081e+03 0.0000e+00
      0.738    22.3054   5.140957     2.1201     0.1826    83.8290       1038    259.250 1.2480e+03 0.0000e+00
      0.736    22.3054   5.140955     2.1086     0.1844    83.8159       1039    259.500 8.1297e+02 0.0000e+00
      0.735    22.3054   5.140953     2.0963     0.1826    83.8208       1040    259.750 1.2228e+03 0.0000e+00
      0.734    22.3053   5.140956     2.0838     0.1817    83.9726       1041    260.000 5.6149e+02 0.0000e+00
      0.733    22.3053   5.140965     2.0725     0.1698    83.9645       1042    260.250 8.1566e+02 0.0000e+00
      0.732    22.3054   5.140974     2.0646     0.1693    83.9547       1043    260.500 1.5451e+03 0.0000e+00
      0.732    22.3054   5.140983     2.0581     0.1679    83.9971       1044    260.750 1.3992e+03 0.0000e+00
      0.733    22.3054   5.140995     2.0522     0.1698    84.0053       1045    261.000 9.4118e+02 0.0000e+00
      0.736    22.3054   5.141010     2.0453     0.1551    84.0020       1046    261.250 5.1634e+02 0.0000e+00
      0.738    22.3054   5.141024     2.0407     0.1560    84.0036       1047    261.500 1.6326e+03 0.0000e+00
      0.740    22.3054   5.141033     2.0436     0.1528    83.8225       1048    261.750 6.3678e+02 0.0000e+00
      0.740    22.3054   5.141037     2.0516     0.1565    83.8208       1049    262.000 8.1868e+02 0.0000e+00
      0.738    22.3054   5.141042     2.0596     0.1514    83.8257       1050    262.250 4.2335e+02 0.0000e+00
      0.737    22.3054   5.141049     2.0655     0.1981    83.9645       1051    262.500 1.3049e+03 0.0000e+00
      0.736    22.3054   5.141059     2.0771     0.1963    83.9547       1052    262.750 1.0784e+03 0.0000e+00
      0.737    22.3054   5.141069     2.1038     0.1945    83.9514       1053    263.000 1.1589e+03 0.0000e+00
      0.739    22.3054   5.141076     2.1374     0.2000    83.9383       1054    263.250 6.5665e+02 0.0000e+00
      0.740    22.3054   5.141080     2.1685     0.1473    84.0395       1055    263.500 1.1397e+03 0.0000e+00
      0.739    22.3054   5.141080     2.1923     0.1469    84.0542       1056    263.750 7.4745e+02 0.0000e+00
      0.739    22.3053   5.141079     2.2104     0.1487    84.0428       1057    264.000 1.1018e+03 0.0000e+00
      0.739    22.3053   5.141080     2.2263     0.1446    83.9335       1058    264.250 7.0922e+02 0.0000e+00
      0.740    22.3053   5.141081     2.2397     0.1405    83.9383       1059    264.500 1.0094e+03 0.0000e+00
      0.742    22.3054   5.141080     2.2532     0.1414    83.9416       1060    264.750 2.7090e+03 0.0000e+00
      0.744    22.3054   5.141077     2.2685     0.1432    83.9498       1061    265.000 9.6528e+02 0.0000e+00
      0.744    22.3054   5.141071     2.2786     0.1391    83.9514       1062    265.250 8.7652e+02 0.0000e+00
      0.744    22.3054   5.141067     2.2840     0.1414    83.9449       1063    265.500 7.8150e+02 0.0000e+00
      0.743    22.3054   5.141065     2.2824     0.1514    83.9335       1064    265.750 8.0997e+02 0.0000e+00
      0.742    22.3055   5.141064     2.2728     0.1565    83.8992       1065    266.000 2.7046e+02 0.0000e+00
      0.742    22.3055   5.141066     2.2629     0.1565    83.8959       1066    266.250 1.0814e+03 0.0000e+00
      0.743    22.3056   5.141069     2.2494     0.1565    83.8845       1067    266.500 4.6073e+02 0.0000e+00
      0.744    22.3056   5.141074     2.2370     0.1894    83.9122       1068    266.750 7.0222e+02 0.0000e+00
      0.744    22.3056   5.141081     2.2285     0.1904    83.9122       1069    267.000 8.7125e+02 0.0000e+00
      0.743    22.3056   5.141087     2.2252     0.1881    83.9155       1070    267.250 5.0228e+02 0.0000e+00
      0.741    22.3056   5.141094     2.2251     0.1945    84.0477       1071    267.500 1.3606e+03 0.0000e+00
      0.737    22.3056   5.141100     2.2249     0.1826    84.0493       1072    267.750 7.5799e+02 0.0000e+00
      0.734    22.3056   5.141105     2.2182     0.1839    84.0395       1073    268.000 1.1544e+03 0.0000e+00
      0.733    22.3055   5.141109     2.2121     0.1858    84.0559       1074    268.250 7.8378e+02 0.0000e+00
      0.733    22.3055   5.141111     2.2041     0.1844    84.0918       1075    268.500 7.2244e+02 0.0000e+00
      0.733    22.3055   5.141112     2.2009     0.1817    84.0820       1076    268.750 1.7192e+03 0.0000e+00
      0.733    22.3055   5.141112     2.2061     0.1739    84.1032       1077    269.000 9.2198e+02 0.0000e+00
      0.733    22.3055   5.141115     2.2108     0.1789    83.9563       1078    269.250 1.5703e+03 0.0000e+00
      0.732    22.3055   5.141119     2.2141     0.1771    83.9661       1079    269.500 8.5049e+02 0.0000e+00
      0.732    22.3055   5.141122     2.2122     0.1789    83.9612       1080    269.750 1.1099e+03 0.0000e+00
      0.733    22.3055   5.141125     2.2061     0.1382    83.7311       1081    270.000 1.7079e+03 0.0000e+00
      0.736    22.3055   5.141129     2.1966     0.1400    83.7409       1082    270.250 7.8347e+02 0.0000e+00
      0.739    22.3055   5.141134     2.1894     0.1400    83.7474       1083    270.500 7.4051e+02 0.0000e+00
      0.741    22.3055   5.141136     2.1901     0.1382    83.7311       1084    270.750 1.0151e+03 0.0000e+00
      0.742    22.3054   5.141137     2.1960     0.1556    83.7735       1085    271.000 8.1820e+02 0.0000e+00
      0.742    22.3054   5.141138     2.2026     0.1519    83.7506       1086    271.250 7.6243e+02 0.0000e+00
      0.741    22.3055   5.141137     2.2042     0.1542    83.7621       1087    271.500 1.6796e+03 0.0000e+00
      0.740    22.3055   5.141136     2.2026     0.1551    83.8698       1088    271.750 6.0233e+02 0.0000e+00
      0.741    22.3055   5.141137     2.2005     0.1565    83.8780       1089    272.000 6.2028e+02 0.0000e+00
      0.744    22.3055   5.141143     2.2013     0.1620    83.8616       1090    272.250 1.1353e+03 0.0000e+00
      0.747    22.3055   5.141151     2.2065     0.1620    83.8567       1091    272.500 8.2171e+02 0.0000e+00
      0.749    22.3055   5.141156     2.2135     0.1620    83.9204       1092    272.750 1.5302e+03 0.0000e+00
      0.750    22.3055   5.141158     2.2208     0.1647    83.9237       1093    273.000 7.7861e+02 0.0000e+00
      0.748    22.3055   5.141160     2.2262     0.1702    83.9302       1094    273.250 1.0701e+03 0.0000e+00
      0.744    22.3054   5.141160     2.2264     0.1711    83.8975       1095    273.500 7.4600e+02 0.0000e+00
      0.742    22.3054   5.141158     2.2251     0.1675    83.8845       1096    273.750 9.8942e+02 0.0000e+00
      0.740    22.3054   5.141155     2.2230     0.1702    83.8877       1097    274.000 7.4470e+02 0.0000e+00
      0.741    22.3054   5.141154     2.2191     0.1711    83.8225       1098    274.250 5.1344e+02 0.0000e+00
      0.741    22.3054   5.141154     2.2260     0.1794    83.8388       1099    274.500 4.8955e+02 0.0000e+00
      0.741    22.3054   5.141156     2.2341     0.1771    83.8323       1100    274.750 8.8525e+02 0.0000e+00
      0.739    22.3054   5.141158     2.2383     0.1762    83.8208       1101    275.000 7.0181e+02 0.0000e+00
      0.738    22.3054   5.141159     2.2391     0.1766    83.7572       1102    275.250 8.4735e+02 0.0000e+00
      0.737    22.3054   5.141160     2.2355     0.1565    83.7539       1103    275.500 1.1251e+03 0.0000e+00
      0.738    22.3054   5.141161     2.2306     0.1542    83.7588       1104    275.750 1.4074e+03 0.0000e+00
      0.740    22.3054   5.141161     2.2219     0.1579    83.8616       1105    276.000 5.6797e+02 0.0000e+00
      0.741    22.3055   5.141159     2.2158     0.1565    83.8518       1106    276.250 9.1679e+02 0.0000e+00
      0.742    22.3055   5.141155     2.2108     0.1391    83.8567       1107    276.500 1.0369e+03 0.0000e+00
      0.741    22.3054   5.141155     2.2062     0.1382    84.0216       1108    276.750 1.0073e+03 0.0000e+00
      0.739    22.3054   5.141158     2.1994     0.1432    84.0200       1109    277.000 1.1291e+03 0.0000e+00
      0.735    22.3054   5.141162     2.1910     0.1409    84.0249       1110    277.250 5.3724e+02 0.0000e+00
      0.730    22.3054   5.141166     2.1807     0.1395    84.0297       1111    277.500 1.4862e+03 0.0000e+00
      0.725    22.3054   5.141167     2.1732     0.1560    83.8877       1112    277.750 5.0689e+02 0.0000e+00
      0.722    22.3054   5.141166     2.1682     0.1551    83.8877       1113    278.000 3.2509e+02 0.0000e+00
      0.719    22.3055   5.141163     2.1656     0.1524    83.8714       1114    278.250 1.3341e+03 0.0000e+00
      0.719    22.3055   5.141161     2.1652     0.1546    83.9579       1115    278.500 1.0718e+03 0.0000e+00
      0.719    22.3056   5.141162     2.1694     0.1546    83.9579       1116    278.750 4.0499e+02 0.0000e+00
      0.720    22.3056   5.141166     2.1786     0.1533    83.9645       1117    279.000 3.6179e+02 0.0000e+00
      0.721    22.3056   5.141169     2.1883     0.1546    83.9481       1118    279.250 8.0635e+02 0.0000e+00
      0.720    22.3055   5.141172     2.1977     0.1556    83.8110       1119    279.500 8.8801e+02 0.0000e+00
      0.717    22.3055   5.141177     2.2038     0.1858    83.8127       1120    279.750 7.0853e+02 0.0000e+00
      0.715    22.3055   5.141182     2.2077     0.1826    83.8208       1121    280.000 1.1805e+03 0.0000e+00
      0.713    22.3055   5.141185     2.2132     0.1858    83.9579       1122    280.250 1.0171e+03 0.0000e+00
      0.713    22.3056   5.141184     2.2186     0.1849    83.9743       1123    280.500 4.0224e+02 0.0000e+00
      0.716    22.3056   5.141185     2.2251     0.1826    83.9775       1124    280.750 2.2392e+02 0.0000e+00
      0.720    22.3057   5.141190     2.2267     0.1620    83.8208       1125    281.000 6.3827e+02 0.0000e+00
      0.725    22.3058   5.141199     2.2273     0.1611    83.8159       1126    281.250 6.8004e+02 0.0000e+00
      0.727    22.3060   5.141212     2.2319     0.1624    83.8208       1127    281.500 1.0305e+03 0.0000e+00
      0.726    22.3062   5.141225     2.2368     0.1592    83.8127       1128    281.750 1.2524e+03 0.0000e+00
      0.722    22.3063   5.141235     2.2419    -0.0024    83.8943       1129    282.000 9.2990e+02 0.0000e+00
      0.718    22.3064   5.141242     2.2472    -0.0037    83.8992       1130    282.250 2.7262e+02 0.0000e+00
      0.717    22.3065   5.141249     2.2604    -0.0037    83.8829       1131    282.500 1.8174e+02 0.0000e+00
      0.719    22.3067   5.141265     2.2786    -0.0033    83.9906       1132    282.750 8.8474e+02 0.0000e+00
      0.723    22.3069   5.141283     2.2950     0.1235    84.0004       1133    283.000 7.4455e+02 0.0000e+00
      0.726    22.3072   5.141295     2.3100     0.1253    83.9971       1134    283.250 6.0609e+02 0.0000e+00
      0.728    22.3076   5.141300     2.3276     0.1263    83.8812       1135    283.500 1.3056e+03 0.0000e+00
      0.728    22.3079   5.141305     2.3476     0.1253    83.8763       1136    283.750 2.2619e+02 0.0000e+00
      0.727    22.3081   5.141310     2.3604     0.1267    83.8747       1137    284.000 1.5332e+03 0.0000e+00
      0.728    22.3082   5.141316     2.3658     0.4339    83.8845       1138    284.250 7.0784e+02 0.0000e+00
      0.731    22.3082   5.141325     2.3689     0.4380    83.7033       1139    284.500 6.6062e+02 0.0000e+00
      0.735    22.3083   5.141337     2.3694     0.4389    83.7000       1140    284.750 1.0057e+03 0.0000e+00
      0.741    22.3084   5.141346     2.3678     0.4357    83.7082       1141    285.000 7.5110e+02 0.0000e+00
      0.746    22.3086   5.141349     2.3651    -0.0340    83.7082       1142    285.250 9.3807e+02 0.0000e+00
      0.750    22.3088   5.141347     2.3574    -0.0326    83.7049       1143    285.500 1.3766e+03 0.0000e+00
      0.752    22.3090   5.141345     2.3492    -0.0335    83.7098       1144    285.750 3.8390e+02 0.0000e+00
      0.752    22.3091   5.141342     2.3355    -0.0335    83.8241       1145    286.000 4.6514e+02 0.0000e+00
      0.751    22.3091   5.141338     2.3194     0.2114    83.8339       1146    286.250 5.8353e+02 0.0000e+00
      0.750    22.3091   5.141334     2.3015     0.2132    83.8225       1147    286.500 1.0928e+03 0.0000e+00
      0.749    22.3091   5.141331     2.2847     0.2114    83.8274       1148    286.750 5.1035e+02 0.0000e+00
      0.748    22.3089   5.141330     2.2650     0.2132    84.0249       1149    287.000 9.4614e+02 0.0000e+00
      0.746    22.3088   5.141329     2.2493     0.2146    84.0200       1150    287.250 1.4879e+03 0.0000e+00
      0.745    22.3087   5.141327     2.2358     0.0489    84.0151       1151    287.500 1.7206e+03 0.0000e+00
      0.745    22.3086   5.141328     2.2262     0.0489    84.0640       1152    287.750 7.0496e+02 0.0000e+00
      0.745    22.3085   5.141334     2.2189     0.0484    84.0575       1153    288.000 5.6598e+02 0.0000e+00
      0.745    22.3084   5.141338     2.2110     0.0489    84.0428       1154    288.250 7.3993e+02 0.0000e+00
      0.745    22.3084   5.141339     2.2013     0.1373    84.0395       1155    288.500 1.3524e+03 0.0000e+00
      0.744    22.3083   5.141344     2.1926     0.1414    83.9530       1156    288.750 8.6315e+02 0.0000e+00
      0.744    22.3083   5.141354     2.1838     0.1395    83.9416       1157    289.000 1.2993e+03 0.0000e+00
      0.747    22.3084   5.141368     2.1775     0.1405    83.9530       1158    289.250 1.4862e+03 0.0000e+00
      0.751    22.3084   5.141387     2.1729     0.1391    84.0004       1159    289.500 4.1673e+02 0.0000e+00
      0.755    22.3085   5.141406     2.1693     0.1409    84.0036       1160    289.750 7.1545e+02 0.0000e+00
      0.757    22.3086   5.141417     2.1681     0.1405    83.9971       1161    290.000 8.7873e+02 0.0000e+00
      0.758    22.3087   5.141422     2.1706     0.1414    83.8910       1162    290.250 1.0281e+03 0.0000e+00
      0.757    22.3088   5.141432     2.1772     0.1400    83.8926       1163    290.500 1.3290e+03 0.0000e+00
      0.757    22.3089   5.141452     2.1944     0.1455    83.8780       1164    290.750 1.0990e+03 0.0000e+00
      0.759    22.3090   5.141476     2.2249     0.1487    83.8780       1165    291.000 7.6928e+02 0.0000e+00
      0.763    22.3090   5.141495     2.2581     0.1492    83.6658       1166    291.250 1.0124e+03 0.0000e+00
      0.766    22.3091   5.141505     2.2878     0.1459    83.6674       1167    291.500 1.5080e+03 0.0000e+00
      0.766    22.3092   5.141506     2.3238     0.1904    83.6772       1168    291.750 2.0414e+03 0.0000e+00
      0.764    22.3093   5.141507     2.3580     0.1913    83.4422       1169    292.000 1.5210e+03 0.0000e+00
      0.763    22.3093   5.141514     2.3881     0.1908    83.4471       1170    292.250 1.2885e+03 0.0000e+00
      0.764    22.3092   5.141525     2.4067     0.1899    83.4422       1171    292.500 9.2359e+02 0.0000e+00
      0.769    22.3092   5.141538     2.4144     0.1885    83.9204       1172    292.750 8.1249e+02 0.0000e+00
      0.775    22.3091   5.141547     2.4167     0.1492    83.9253       1173    293.000 1.6288e+03 0.0000e+00
      0.780    22.3091   5.141548     2.4154     0.1464    83.9204       1174    293.250 1.1711e+03 0.0000e+00
      0.783    22.3090   5.141541     2.4158     0.1464    83.9335       1175    293.500 7.1726e+02 0.0000e+00
      0.782    22.3090   5.141532     2.4273     0.1459    83.7719       1176    293.750 4.9722e+02 0.0000e+00
      0.781    22.3090   5.141527     2.4415     0.1382    83.7833       1177    294.000 5.6488e+02 0.0000e+00
      0.780    22.3090   5.141524     2.4512     0.1418    83.7866       1178    294.250 1.4692e+03 0.0000e+00
      0.781    22.3090   5.141522     2.4568     0.1386    83.8665       1179    294.500 3.1299e+02 0.0000e+00
      0.782    22.3090   5.141520     2.4571     0.1414    83.8682       1180    294.750 9.9134e+02 0.0000e+00
      0.783    22.3090   5.141518     2.4501     0.1913    83.8502       1181    295.000 8.6450e+02 0.0000e+00
      0.783    22.3090   5.141516     2.4385     0.1899    83.8323       1182    295.250 4.7206e+02 0.0000e+00
      0.781    22.3090   5.141513     2.4213     0.1931    83.8208       1183    295.500 1.3582e+03 0.0000e+00
      0.779    22.3091   5.141509     2.4004     0.1917    83.8241       1184    295.750 1.0128e+03 0.0000e+00
      0.776    22.3091   5.141508     2.3762     0.1904    83.8257       1185    296.000 8.3622e+02 0.0000e+00
      0.771    22.3091   5.141507     2.3525     0.1473    83.8633       1186    296.250 1.1221e+03 0.0000e+00
      0.766    22.3090   5.141509     2.3268     0.1469    83.8584       1187    296.500 8.0322e+02 0.0000e+00
      0.760    22.3090   5.141514     2.3011     0.1459    83.8600       1188    296.750 8.9425e+02 0.0000e+00
      0.756    22.3090   5.141522     2.2785     0.1496    83.9171       1189    297.000 1.6822e+03 0.0000e+00
      0.755    22.3090   5.141532     2.2601     0.1638    83.9253       1190    297.250 1.1484e+03 0.0000e+00
      0.758    22.3090   5.141541     2.2455     0.1624    83.9204       1191    297.500 7.7153e+02 0.0000e+00
      0.762    22.3090   5.141547     2.2364     0.1601    83.9171       1192    297.750 1.1121e+03 0.0000e+00
      0.767    22.3090   5.141551     2.2307     0.1624    83.9416       1193    298.000 1.8780e+03 0.0000e+00
      0.771    22.3090   5.141552     2.2300     0.1908    83.9416       1194    298.250 1.7516e+03 0.0000e+00
      0.773    22.3090   5.141551     2.2255     0.1926    83.9302       1195    298.500 8.4341e+02 0.0000e+00
      0.774    22.3090   5.141550     2.2186     0.1926    83.8323       1196    298.750 9.5910e+02 0.0000e+00
      0.774    22.3090   5.141550     2.2126     0.1904    83.8372       1197    299.000 9.5780e+02 0.0000e+00
      0.776    22.3090   5.141551     2.2105     0.1913    83.8388       1198    299.250 1.0151e+03 0.0000e+00
      0.779    22.3090   5.141556     2.2190     0.1766    83.8747       1199    299.500 2.1302e+03 0.0000e+00
      0.782    22.3090   5.141563     2.2274     0.1739    83.8894       1200    299.750 7.5741e+02 0.0000e+00
      0.785    22.3090   5.141567     2.2364     0.1762    83.8845       1201    300.000 8.3394e+02 0.0000e+00
      0.785    22.3090   5.141568     2.2406     0.1771    83.8812       1202    300.250 6.2512e+02 0.0000e+00
      0.784    22.3090   5.141566     2.2420     0.1459    83.7996       1203    300.500 1.9219e+03 0.0000e+00
      0.782    22.3090   5.141562     2.2412     0.1446    83.7996       1204    300.750 9.2359e+02 0.0000e+00
      0.780    22.3090   5.141560     2.2447     0.1469    83.8045       1205    301.000 1.3683e+03 0.0000e+00
      0.779    22.3090   5.141560     2.2494     0.1469    83.9024       1206    301.250 6.5678e+02 0.0000e+00
      0.778    22.3089   5.141561     2.2574     0.1615    83.9106       1207    301.500 1.8204e+03 0.0000e+00
      0.778    22.3089   5.141561     2.2660     0.1611    83.8959       1208    301.750 6.4865e+02 0.0000e+00
      0.777    22.3090   5.141561     2.2732     0.1624    83.8453       1209    302.000 7.9036e+02 0.0000e+00
      0.774    22.3090   5.141559     2.2759     0.1624    83.7719       1210    302.250 1.3635e+03 0.0000e+00
      0.769    22.3089   5.141557     2.2747     0.1624    83.7670       1211    302.500 2.9482e+03 0.0000e+00
      0.763    22.3089   5.141558     2.2702     0.1638    83.7768       1212    302.750 1.2166e+03 0.0000e+00
      0.756    22.3089   5.141558     2.2612     0.1633    84.0118       1213    303.000 5.3609e+02 0.0000e+00
      0.750    22.3089   5.141557     2.2519     0.1611    84.0232       1214    303.250 1.0915e+03 0.0000e+00
      0.745    22.3089   5.141555     2.2440     0.1624    84.0200       1215    303.500 9.2845e+02 0.0000e+00
      0.742    22.3088   5.141555     2.2349     0.1533    83.7131       1216    303.750 1.3163e+03 0.0000e+00
      0.740    22.3087   5.141556     2.2244     0.1533    83.7082       1217    304.000 9.0281e+02 0.0000e+00
      0.739    22.3086   5.141556     2.2121     0.1551    83.7049       1218    304.250 9.1590e+02 0.0000e+00
      0.739    22.3084   5.141555     2.2005     0.1533    83.6919       1219    304.500 7.1462e+02 0.0000e+00
      0.737    22.3082   5.141553     2.1870     0.1505    83.9743       1220    304.750 2.2860e+03 0.0000e+00
      0.736    22.3079   5.141552     2.1756     0.1771    83.9824       1221    305.000 2.0040e+03 0.0000e+00
      0.735    22.3076   5.141551     2.1635     0.1766    83.9726       1222    305.250 3.1562e+02 0.0000e+00
      0.735    22.3074   5.141551     2.1514     0.1766    84.0004       1223    305.500 1.3023e+03 0.0000e+00
      0.737    22.3071   5.141551     2.1402     0.1752    84.0053       1224    305.750 1.2004e+03 0.0000e+00
      0.738    22.3067   5.141551     2.1278     0.1624    84.0085       1225    306.000 7.8089e+02 0.0000e+00
      0.739    22.3063   5.141552     2.1196     0.1601    83.9481       1226    306.250 8.7430e+02 0.0000e+00
      0.738    22.3059   5.141551     2.1130     0.1611    83.9481       1227    306.500 8.2027e+02 0.0000e+00
      0.736    22.3056   5.141545     2.1099     0.1601    83.9661       1228    306.750 1.0442e+03 0.0000e+00
      0.735    22.3054   5.141529     2.1102     0.1757    83.9465       1229    307.000 1.2674e+03 0.0000e+00
      0.735    22.3054   5.141504     2.1178     0.1766    83.9204       1230    307.250 6.3727e+02 0.0000e+00
      0.737    22.3053   5.141477     2.1305     0.1757    83.9286       1231    307.500 8.9477e+02 0.0000e+00
      0.741    22.3052   5.141458     2.1440     0.1789    83.9367       1232    307.750 6.5921e+02 0.0000e+00
      0.744    22.3049   5.141456     2.1590     0.1766    84.0053       1233    308.000 9.3244e+02 0.0000e+00
      0.746    22.3047   5.141461     2.1720     0.1707    84.0004       1234    308.250 1.2830e+03 0.0000e+00
      0.749    22.3045   5.141456     2.1820     0.1707    84.0118       1235    308.500 1.4627e+03 0.0000e+00
      0.753    22.3044   5.141433     2.1923     0.1698    83.9302       1236    308.750 1.2797e+03 0.0000e+00
      0.759    22.3044   5.141404     2.2039     0.1688    83.9383       1237    309.000 8.3427e+02 0.0000e+00
      0.766    22.3043   5.141386     2.2163     0.1839    83.9302       1238    309.250 1.0217e+03 0.0000e+00
      0.772    22.3042   5.141390     2.2331     0.1835    83.9237       1239    309.500 8.3427e+02 0.0000e+00
      0.777    22.3041   5.141410     2.2468     0.1826    83.8535       1240    309.750 9.8807e+02 0.0000e+00
      0.780    22.3040   5.141432     2.2544     0.1821    83.8453       1241    310.000 4.9414e+02 0.0000e+00
      0.782    22.3040   5.141444     2.2580     0.1670    83.8453       1242    310.250 9.4027e+02 0.0000e+00
      0.782    22.3041   5.141444     2.2576     0.1688    83.9416       1243    310.500 6.8123e+02 0.0000e+00
      0.783    22.3042   5.141443     2.2577     0.1711    83.9383       1244    310.750 1.1709e+03 0.0000e+00
      0.783    22.3043   5.141444     2.2590     0.1688    83.9383       1245    311.000 1.1860e+03 0.0000e+00
      0.783    22.3044   5.141438     2.2588     0.1688    83.9237       1246    311.250 9.9695e+02 0.0000e+00
      0.784    22.3045   5.141421     2.2567     0.1679    83.8469       1247    311.500 1.3480e+03 0.0000e+00
      0.785    22.3046   5.141398     2.2514     0.1661    83.8518       1248    311.750 9.8673e+02 0.0000e+00
      0.786    22.3046   5.141384     2.2430     0.1679    83.8567       1249    312.000 6.7885e+02 0.0000e+00
      0.787    22.3046   5.141386     2.2354     0.1679    83.8437       1250    312.250 6.0691e+02 0.0000e+00
      0.787    22.3046   5.141391     2.2299     0.1606    83.8518       1251    312.500 1.4891e+03 0.0000e+00
      0.787    22.3045   5.141388     2.2236     0.1661    83.8453       1252    312.750 1.3443e+03 0.0000e+00
      0.787    22.3045   5.141370     2.2170     0.1620    83.8845       1253    313.000 4.1286e+02 0.0000e+00
      0.788    22.3045   5.141349     2.2148     0.1638    83.8845       1254    313.250 8.2491e+02 0.0000e+00
      0.789    22.3045   5.141343     2.2149     0.1620    83.8780       1255    313.500 1.2190e+03 0.0000e+00
      0.788    22.3045   5.141359     2.2158     0.1606    83.8714       1256    313.750 9.3461e+02 0.0000e+00
      0.785    22.3045   5.141384     2.2166     0.1643    83.9416       1257    314.000 7.6630e+02 0.0000e+00
      0.782    22.3045   5.141398     2.2190     0.1638    83.9416       1258    314.250 8.6955e+02 0.0000e+00
      0.779    22.3046   5.141386     2.2264     0.1588    83.9547       1259    314.500 1.4499e+03 0.0000e+00
      0.779    22.3048   5.141357     2.2396     0.1546    83.8567       1260    314.750 1.1812e+03 0.0000e+00
      0.781    22.3050   5.141332     2.2553     0.1546    83.8600       1261    315.000 8.0275e+02 0.0000e+00
      0.784    22.3051   5.141325     2.2695     0.1551    83.8616       1262    315.250 1.3558e+03 0.0000e+00
      0.786    22.3051   5.141341     2.2815     0.1546    83.8877       1263    315.500 1.0824e+03 0.0000e+00
      0.785    22.3052   5.141366     2.2997     0.2338    83.8992       1264    315.750 6.0197e+02 0.0000e+00
      0.782    22.3052   5.141380     2.3190     0.2325    83.8992       1265    316.000 8.6466e+02 0.0000e+00
      0.778    22.3053   5.141372     2.3320     0.2325    83.9057       1266    316.250 5.2362e+02 0.0000e+00
      0.775    22.3055   5.141352     2.3389     0.2338    83.8845       1267    316.500 1.2381e+03 0.0000e+00
      0.775    22.3056   5.141336     2.3479     0.2325    83.8877       1268    316.750 4.4186e+02 0.0000e+00
      0.776    22.3056   5.141330     2.3574    -0.1699    83.8845       1269    317.000 6.7477e+02 0.0000e+00
      0.776    22.3056   5.141336     2.3651    -0.1722    83.8910       1270    317.250 1.6171e+03 0.0000e+00
      0.776    22.3056   5.141350     2.3656    -0.1708    83.9024       1271    317.500 1.3686e+03 0.0000e+00
      0.774    22.3056   5.141359     2.3626    -0.1754    83.8926       1272    317.750 1.3865e+03 0.0000e+00
      0.773    22.3056   5.141359     2.3558    -0.0472    83.8910       1273    318.000 9.3771e+02 0.0000e+00
      0.773    22.3056   5.141350     2.3450    -0.0472    83.7996       1274    318.250 8.8302e+02 0.0000e+00
      0.774    22.3056   5.141340     2.3404    -0.0472    83.7898       1275    318.500 1.0958e+03 0.0000e+00
      0.775    22.3056   5.141337     2.3284    -0.0463    83.7931       1276    318.750 1.7192e+03 0.0000e+00
      0.776    22.3056   5.141344     2.3145     0.2535    83.7604       1277    319.000 1.8926e+03 0.0000e+00
      0.777    22.3056   5.141356     2.2990     0.2544    83.7604       1278    319.250 7.6243e+02 0.0000e+00
      0.778    22.3056   5.141365     2.2850     0.2558    83.7604       1279    319.500 9.2395e+02 0.0000e+00
      0.780    22.3056   5.141362     2.2703     0.2558    83.8665       1280    319.750 6.4450e+02 0.0000e+00
      0.786    22.3056   5.141349     2.2577     0.2558    83.8861       1281    320.000 6.8642e+02 0.0000e+00
      0.794    22.3056   5.141334     2.2486     0.1263    83.8780       1282    320.250 9.2629e+02 0.0000e+00
      0.806    22.3056   5.141328     2.2438     0.1281    83.8567       1283    320.500 4.5494e+02 0.0000e+00
      0.820    22.3056   5.141330     2.2438     0.1263    83.8910       1284    320.750 5.9569e+02 0.0000e+00
      0.835    22.3056   5.141338     2.2478     0.1258    83.8780       1285    321.000 1.2331e+03 0.0000e+00
      0.852    22.3056   5.141348     2.2557     0.0114    83.8780       1286    321.250 7.2908e+02 0.0000e+00
      0.872    22.3056   5.141353     2.2678     0.0114    83.7719       1287    321.500 7.7514e+02 0.0000e+00
      0.897    22.3057   5.141348     2.2786     0.0109    83.7719       1288    321.750 3.8166e+02 0.0000e+00
      0.929    22.3057   5.141335     2.2868     0.0104    83.7866       1289    322.000 1.1009e+03 0.0000e+00
      0.972    22.3056   5.141315     2.2878     0.0846    83.9122       1290    322.250 1.3903e+03 0.0000e+00
      1.026    22.3055   5.141293     2.2838     0.0851    83.9057       1291    322.500 1.6240e+03 0.0000e+00
      1.094    22.3053   5.141267     2.2749     0.0874    83.9204       1292    322.750 9.9540e+02 0.0000e+00
      1.172    22.3050   5.141227     2.2671     0.0869    83.9171       1293    323.000 9.4669e+02 0.0000e+00
      1.259    22.3045   5.141161     2.2656     0.0832    83.7833       1294    323.250 8.3362e+02 0.0000e+00
      1.350    22.3037   5.141089     2.2818     0.1931    83.7849       1295    323.500 5.8138e+02 0.0000e+00
      1.440    22.3026   5.141036     2.3243     0.1945    83.7866       1296    323.750 1.7043e+03 0.0000e+00
      1.529    22.3016   5.140989     2.3805     0.1894    83.7343       1297    324.000 6.9394e+02 0.0000e+00
      1.618    22.3006   5.140919     2.4281     0.1908    83.7327       1298    324.250 8.3411e+02 0.0000e+00
      1.705    22.2998   5.140838     2.4576     0.1492    83.7294       1299    324.500 5.8070e+02 0.0000e+00
      1.788    22.2991   5.140799     2.4715     0.1459    83.8274       1300    324.750 8.9512e+02 0.0000e+00
      1.863    22.2986   5.140822     2.4771     0.1459    83.8208       1301    325.000 7.6080e+02 0.0000e+00
      1.927    22.2985   5.140864     2.4802     0.1469    83.8208       1302    325.250 9.4872e+02 0.0000e+00
      1.979    22.2986   5.140887     2.4907     0.1766    83.8208       1303    325.500 1.0867e+03 0.0000e+00
      2.021    22.2989   5.140896     2.5017     0.1785    83.4063       1304    325.750 8.0135e+02 0.0000e+00
      2.055    22.2994   5.140901     2.5080     0.1766    83.4160       1305    326.000 7.8668e+02 0.0000e+00
      2.085    22.2998   5.140904     2.5087     0.1711    83.4046       1306    326.250 6.7490e+02 0.0000e+00
      2.112    22.3001   5.140908     2.5045     0.1766    83.7131       1307    326.500 8.4144e+02 0.0000e+00
      2.135    22.3002   5.140918     2.4945     0.1661    83.7245       1308    326.750 4.9916e+02 0.0000e+00
      2.153    22.3002   5.140931     2.4779     0.1693    83.7327       1309    327.000 1.0822e+03 0.0000e+00
      2.166    22.3002   5.140941     2.4601     0.1707    83.7066       1310    327.250 1.2096e+03 0.0000e+00
      2.175    22.3002   5.140945     2.4410     0.1702    83.7817       1311    327.500 7.3807e+02 0.0000e+00
      2.183    22.3002   5.140942     2.4228     0.1748    83.7800       1312    327.750 1.0979e+03 0.0000e+00
      2.193    22.3004   5.140931     2.4042     0.1766    83.7621       1313    328.000 7.9902e+02 0.0000e+00
      2.205    22.3004   5.140916     2.3841     0.1752    83.4830       1314    328.250 1.3857e+03 0.0000e+00
      2.216    22.3004   5.140909     2.3680     0.1725    83.4879       1315    328.500 7.3320e+02 0.0000e+00
      2.227    22.3004   5.140917     2.3513     0.1501    83.4895       1316    328.750 1.0996e+03 0.0000e+00
      2.234    22.3003   5.140936     2.3372     0.1551    83.6674       1317    329.000 6.1559e+02 0.0000e+00
      2.239    22.3003   5.140950     2.3272     0.1542    83.6707       1318    329.250 6.8695e+02 0.0000e+00
      2.245    22.3004   5.140951     2.3212     0.1551    83.6625       1319    329.500 8.3071e+02 0.0000e+00
      2.253    22.3005   5.140940     2.3185     0.1542    83.6739       1320    329.750 1.3069e+03 0.0000e+00
      2.265    22.3006   5.140922     2.3220     0.1670    83.7996       1321    330.000 8.9165e+02 0.0000e+00
      2.283    22.3006   5.140909     2.3322     0.1688    83.8045       1322    330.250 1.0371e+03 0.0000e+00
      2.306    22.3006   5.140903     2.3410     0.1707    83.7833       1323    330.500 1.2403e+03 0.0000e+00
      2.332    22.3006   5.140909     2.3450     0.1688    83.7637       1324    330.750 4.8812e+02 0.0000e+00
      2.363    22.3006   5.140921     2.3465     0.1711    83.7751       1325    331.000 9.2954e+02 0.0000e+00
      2.399    22.3006   5.140923     2.3396     0.1679    83.7702       1326    331.250 1.4579e+03 0.0000e+00
      2.446    22.3005   5.140903     2.3295     0.1698    83.6723       1327    331.500 4.1471e+02 0.0000e+00
      2.506    22.3004   5.140857     2.3191     0.1698    83.6641       1328    331.750 1.2302e+03 0.0000e+00
      2.583    22.3002   5.140791     2.3130     0.1661    83.6527       1329    332.000 1.0271e+03 0.0000e+00
      2.674    22.2999   5.140717     2.3085     0.1762    83.6641       1330    332.250 7.4571e+02 0.0000e+00
      2.777    22.2993   5.140649     2.3117     0.1780    83.7735       1331    332.500 9.2521e+02 0.0000e+00
      2.888    22.2987   5.140595     2.3337     0.1748    83.7719       1332    332.750 6.8896e+02 0.0000e+00
      3.007    22.2982   5.140550     2.3720     0.1766    83.7800       1333    333.000 9.5799e+02 0.0000e+00
      3.135    22.2977   5.140511     2.4107     0.1771    83.6772       1334    333.250 5.4133e+02 0.0000e+00
      3.273    22.2973   5.140475     2.4391     0.1757    83.6805       1335    333.500 6.0010e+02 0.0000e+00
      3.423    22.2969   5.140446     2.4543     0.1766    83.6952       1336    333.750 5.0807e+02 0.0000e+00
      3.580    22.2966   5.140440     2.4612     0.1762    83.6511       1337    334.000 7.6525e+02 0.0000e+00
      3.741    22.2964   5.140464     2.4685     0.1688    83.5287       1338    334.250 7.1351e+02 0.0000e+00
      3.902    22.2964   5.140498     2.4882     0.1670    83.5156       1339    334.500 5.9395e+02 0.0000e+00
      4.062    22.2964   5.140512     2.5159     0.1698    83.5172       1340    334.750 6.0233e+02 0.0000e+00
      4.220    22.2964   5.140495     2.5419     0.1702    83.4585       1341    335.000 4.2327e+02 0.0000e+00
      4.378    22.2962   5.140440     2.5570     0.1711    83.4732       1342    335.250 3.6355e+02 0.0000e+00
      4.535    22.2958   5.140363     2.5605     0.1766    83.4634       1343    335.500 4.8021e+02 0.0000e+00
      4.687    22.2952   5.140298     2.5574     0.1766    83.5254       1344    335.750 4.7344e+02 0.0000e+00
      4.833    22.2945   5.140261     2.5562     0.1789    83.5336       1345    336.000 4.0958e+02 0.0000e+00
      4.972    22.2939   5.140240     2.5647     0.1789    83.5450       1346    336.250 3.8577e+02 0.0000e+00
      5.106    22.2933   5.140221     2.5725     0.1826    83.5254       1347    336.500 4.3360e+02 0.0000e+00
      5.236    22.2928   5.140198     2.5735     0.1844    83.5548       1348    336.750 4.6019e+02 0.0000e+00
      5.365    22.2922   5.140164     2.5676     0.1835    83.5450       1349    337.000 4.0279e+02 0.0000e+00
      5.494    22.2917   5.140116     2.5544     0.1849    83.5450       1350    337.250 3.8189e+02 0.0000e+00
      5.628    22.2911   5.140060     2.5349     0.2128    83.6984       1351    337.500 4.1447e+02 0.0000e+00
      5.765    22.2906   5.140010     2.5149     0.2128    83.7017       1352    337.750 4.4031e+02 0.0000e+00
      5.904    22.2901   5.139982     2.4991     0.2128    83.7017       1353    338.000 4.2550e+02 0.0000e+00
      6.043    22.2897   5.139983     2.4960     0.2151    83.5221       1354    338.250 3.6235e+02 0.0000e+00
      6.181    22.2894   5.139997     2.5060     0.2132    83.5254       1355    338.500 3.4522e+02 0.0000e+00
      6.321    22.2892   5.139998     2.5264     0.2018    83.5205       1356    338.750 3.4975e+02 0.0000e+00
      6.468    22.2892   5.139974     2.5430     0.2055    83.5270       1357    339.000 3.5434e+02 0.0000e+00
      6.627    22.2892   5.139938     2.5511     0.2045    83.7082       1358    339.250 3.5228e+02 0.0000e+00
      6.796    22.2892   5.139920     2.5530     0.2073    83.7262       1359    339.500 3.6476e+02 0.0000e+00
      6.974    22.2892   5.139942     2.5531     0.2045    83.7147       1360    339.750 3.2528e+02 0.0000e+00
      7.156    22.2893   5.139985     2.5603     0.2059    83.6935       1361    340.000 3.1397e+02 0.0000e+00
      7.338    22.2896   5.140030     2.5803     0.2064    83.6919       1362    340.250 3.0804e+02 0.0000e+00
      7.517    22.2900   5.140073     2.6040     0.2050    83.6984       1363    340.500 3.0299e+02 0.0000e+00
      7.691    22.2904   5.140110     2.6210     0.2197    83.4911       1364    340.750 2.9600e+02 0.0000e+00
      7.860    22.2908   5.140138     2.6320     0.2178    83.4846       1365    341.000 2.7588e+02 0.0000e+00
      8.023    22.2910   5.140154     2.6363     0.2178    83.4895       1366    341.250 2.6607e+02 0.0000e+00
      8.179    22.2910   5.140161     2.6395     0.2192    83.4944       1367    341.500 2.6258e+02 0.0000e+00
      8.328    22.2910   5.140169     2.6376     0.2201    83.4699       1368    341.750 2.6105e+02 0.0000e+00
      8.467    22.2908   5.140180     2.6362     0.2343    83.4601       1369    342.000 2.6412e+02 0.0000e+00
      8.597    22.2906   5.140193     2.6343     0.2348    83.4797       1370    342.250 2.6181e+02 0.0000e+00
      8.719    22.2904   5.140195     2.6334     0.2366    83.5450       1371    342.500 2.5300e+02 0.0000e+00
      8.839    22.2903   5.140178     2.6272     0.2348    83.5515       1372    342.750 2.4241e+02 0.0000e+00
      8.959    22.2902   5.140139     2.6188     0.2430    83.5597       1373    343.000 2.3783e+02 0.0000e+00
      9.082    22.2900   5.140078     2.6069     0.2430    83.5483       1374    343.250 2.4086e+02 0.0000e+00
      9.208    22.2897   5.140009     2.5895     0.2430    83.7506       1375    343.500 2.4269e+02 0.0000e+00
      9.335    22.2893   5.139960     2.5702     0.2416    83.7506       1376    343.750 2.3876e+02 0.0000e+00
      9.460    22.2888   5.139939     2.5582     0.2403    83.7490       1377    344.000 2.2867e+02 0.0000e+00
      9.575    22.2884   5.139945     2.5617     0.2421    83.7474       1378    344.250 2.1913e+02 0.0000e+00
      9.679    22.2882   5.139968     2.5775     0.2416    83.7343       1379    344.500 2.1341e+02 0.0000e+00
      9.772    22.2881   5.139994     2.5950     0.2412    83.7441       1380    344.750 2.1433e+02 0.0000e+00
      9.859    22.2881   5.140012     2.6036     0.2412    83.5238       1381    345.000 2.1605e+02 0.0000e+00
      9.944    22.2882   5.140014     2.6072     0.2558    83.5189       1382    345.250 2.1824e+02 0.0000e+00
     10.033    22.2882   5.140000     2.6008     0.2567    83.5254       1383    345.500 2.1714e+02 0.0000e+00
     10.124    22.2881   5.139980     2.5856     0.2563    83.5336       1384    345.750 2.1094e+02 0.0000e+00
     10.214    22.2878   5.139968     2.5654     0.2558    83.6495       1385    346.000 2.0313e+02 0.0000e+00
     10.299    22.2875   5.139968     2.5453     0.2650    83.6609       1386    346.250 2.0238e+02 0.0000e+00
     10.380    22.2871   5.139962     2.5392     0.2627    83.6478       1387    346.500 2.0234e+02 0.0000e+00
     10.461    22.2869   5.139930     2.5454     0.2636    83.6054       1388    346.750 2.0428e+02 0.0000e+00
     10.549    22.2866   5.139853     2.5551     0.2636    83.6021       1389    347.000 2.0337e+02 0.0000e+00
     10.646    22.2862   5.139725     2.5583     0.2650    83.6005       1390    347.250 2.0112e+02 0.0000e+00
     10.755    22.2854   5.139562     2.5541     0.2549    83.5972       1391    347.500 1.9833e+02 0.0000e+00
     10.873    22.2842   5.139401     2.5487     0.2535    83.6086       1392    347.750 1.9065e+02 0.0000e+00
     10.995    22.2828   5.139278     2.5536     0.2549    83.6038       1393    348.000 1.8448e+02 0.0000e+00
     11.120    22.2814   5.139196     2.5689     0.2554    83.6217       1394    348.250 1.8111e+02 0.0000e+00
     11.247    22.2802   5.139133     2.5872     0.2842    83.4242       1395    348.500 1.7814e+02 0.0000e+00
     11.376    22.2792   5.139083     2.5982     0.2847    83.4226       1396    348.750 1.7552e+02 0.0000e+00
     11.504    22.2784   5.139057     2.5988     0.2856    83.4291       1397    349.000 1.7308e+02 0.0000e+00
     11.628    22.2776   5.139069     2.5938     0.2856    83.4503       1398    349.250 1.6866e+02 0.0000e+00
     11.745    22.2771   5.139116     2.5889     0.2920    83.4520       1399    349.500 1.6417e+02 0.0000e+00
     11.853    22.2768   5.139172     2.5919     0.2961    83.4601       1400    349.750 1.6075e+02 0.0000e+00
     11.954    22.2768   5.139215     2.5947     0.2924    83.4389       1401    350.000 1.5982e+02 0.0000e+00
     12.050    22.2769   5.139246     2.5911     0.2938    83.5401       1402    350.250 1.5889e+02 0.0000e+00
     12.144    22.2772   5.139265     2.5792     0.2911    83.5401       1403    350.500 1.6032e+02 0.0000e+00
     12.239    22.2775   5.139267     2.5611     0.3071    83.5336       1404    350.750 1.6060e+02 0.0000e+00
     12.340    22.2780   5.139254     2.5415     0.3062    83.3720       1405    351.000 1.5988e+02 0.0000e+00
     12.453    22.2783   5.139224     2.5248     0.3057    83.3687       1406    351.250 1.5662e+02 0.0000e+00
     12.581    22.2786   5.139174     2.5185     0.3071    83.3785       1407    351.500 1.5220e+02 0.0000e+00
     12.723    22.2786   5.139129     2.5192     0.2911    83.5711       1408    351.750 1.4846e+02 0.0000e+00
     12.875    22.2784   5.139098     2.5208     0.2929    83.5727       1409    352.000 1.4470e+02 0.0000e+00
     13.032    22.2781   5.139061     2.5307     0.2920    83.5695       1410    352.250 1.4081e+02 0.0000e+00
     13.189    22.2776   5.139017     2.5509     0.2911    83.5613       1411    352.500 1.3653e+02 0.0000e+00
     13.341    22.2771   5.138986     2.5737     0.3153    83.2365       1412    352.750 1.3296e+02 0.0000e+00
     13.487    22.2765   5.138976     2.5959     0.3140    83.2349       1413    353.000 1.3032e+02 0.0000e+00
     13.627    22.2760   5.138966     2.6068     0.3149    83.2251       1414    353.250 1.2757e+02 0.0000e+00
     13.763    22.2756   5.138947     2.6104     0.3167    83.3393       1415    353.500 1.2450e+02 0.0000e+00
     13.893    22.2753   5.138936     2.6032     0.3135    83.3149       1416    353.750 1.2146e+02 0.0000e+00
     14.015    22.2750   5.138953     2.5928     0.3181    83.3230       1417    354.000 1.1975e+02 0.0000e+00
     14.126    22.2748   5.138992     2.5863     0.3190    83.3083       1418    354.250 1.1843e+02 0.0000e+00
     14.223    22.2747   5.139034     2.5871     0.3236    83.3018       1419    354.500 1.1742e+02 0.0000e+00
     14.308    22.2748   5.139068     2.5929     0.3231    83.3002       1420    354.750 1.1679e+02 0.0000e+00
     14.383    22.2750   5.139097     2.5901     0.3295    83.3132       1421    355.000 1.1617e+02 0.0000e+00
     14.451    22.2753   5.139125     2.5804     0.3309    83.8453       1422    355.250 1.1651e+02 0.0000e+00
     14.513    22.2756   5.139150     2.5660     0.3286    83.8453       1423    355.500 1.1624e+02 0.0000e+00
     14.575    22.2760   5.139170     2.5527     0.3268    83.8551       1424    355.750 1.1586e+02 0.0000e+00
     14.638    22.2763   5.139180     2.5376     0.3080    83.7164       1425    356.000 1.1523e+02 0.0000e+00
     14.704    22.2765   5.139175     2.5154     0.3085    83.7164       1426    356.250 1.1380e+02 0.0000e+00
     14.776    22.2766   5.139154     2.4897     0.3062    83.7082       1427    356.500 1.1218e+02 0.0000e+00
     14.851    22.2765   5.139124     2.4632     0.3066    83.7082       1428    356.750 1.1040e+02 0.0000e+00
     14.928    22.2763   5.139094     2.4411     0.3075    83.7833       1429    357.000 1.0887e+02 0.0000e+00
     15.004    22.2758   5.139077     2.4244     0.3506    83.7882       1430    357.250 1.0792e+02 0.0000e+00
     15.078    22.2754   5.139072     2.4237     0.3515    83.7849       1431    357.500 1.0656e+02 0.0000e+00
     15.148    22.2749   5.139084     2.4391     0.3515    83.7915       1432    357.750 1.0535e+02 0.0000e+00
     15.213    22.2746   5.139117     2.4541     0.3510    83.7800       1433    358.000 1.0502e+02 0.0000e+00
     15.275    22.2745   5.139158     2.4630     0.3281    83.7898       1434    358.250 1.0423e+02 0.0000e+00
     15.333    22.2744   5.139186     2.4636     0.3300    83.7033       1435    358.500 1.0465e+02 0.0000e+00
     15.392    22.2745   5.139191     2.4551     0.3281    83.7000       1436    358.750 1.0457e+02 0.0000e+00
     15.454    22.2747   5.139160     2.4429     0.3259    83.7049       1437    359.000 1.0439e+02 0.0000e+00
     15.521    22.2750   5.139088     2.4320     0.3263    83.6952       1438    359.250 1.0254e+02 0.0000e+00
     15.594    22.2750   5.138997     2.4218     0.3075    83.7049       1439    359.500 1.0004e+02 0.0000e+00
     15.668    22.2748   5.138922     2.4173     0.3057    83.7082       1440    359.750 9.8837e+01 0.0000e+00
     15.740    22.2744   5.138881     2.4159     0.3066    83.7033       1441    360.000 9.6858e+01 0.0000e+00
     15.805    22.2740   5.138878     2.4240     0.3075    83.2561       1442    360.250 9.5270e+01 0.0000e+00
     15.861    22.2737   5.138911     2.4420     0.3057    83.2610       1443    360.500 9.4826e+01 0.0000e+00
     15.906    22.2736   5.138962     2.4578     0.3071    83.2479       1444    360.750 9.4937e+01 0.0000e+00
     15.942    22.2736   5.139009     2.4658     0.3098    83.3475       1445    361.000 9.5196e+01 0.0000e+00
     15.971    22.2737   5.139046     2.4704     0.3039    83.3589       1446    361.250 9.5474e+01 0.0000e+00
     15.994    22.2740   5.139073     2.4759     0.3130    83.3540       1447    361.500 9.5085e+01 0.0000e+00
     16.013    22.2742   5.139093     2.4826     0.3140    83.3540       1448    361.750 9.4882e+01 0.0000e+00
     16.029    22.2743   5.139109     2.4813     0.3149    83.4160       1449    362.000 9.4513e+01 0.0000e+00
     16.041    22.2744   5.139127     2.4727     0.3149    83.4226       1450    362.250 9.4147e+01 0.0000e+00
     16.048    22.2745   5.139144     2.4545     0.3130    83.4258       1451    362.500 9.4256e+01 0.0000e+00
     16.051    22.2745   5.139152     2.4337     0.3130    83.1680       1452    362.750 9.4018e+01 0.0000e+00
